timestamps,TP9,AF7,AF8,TP10,Right AUX
1688815449.349,-52.246,-32.715,-40.527,-34.180,-151.855
1688815449.353,-22.949,-33.203,-39.062,-59.570,-104.004
1688815449.357,-20.020,-33.691,-40.039,-49.805,-27.832
1688815449.361,-45.898,-35.156,-43.457,-41.504,-127.930
1688815449.365,-100.098,-38.086,-47.852,-23.438,-88.379
1688815449.369,-113.770,-33.691,-45.898,-22.461,59.570
1688815449.373,-86.426,-32.227,-39.551,-65.918,-53.711
1688815449.376,-83.008,-38.574,-40.039,-68.848,-179.199
1688815449.380,-99.121,-36.133,-43.457,-42.480,-144.043
1688815449.384,-139.648,-32.227,-46.387,-13.184,207.520
1688815449.388,-155.273,-30.273,-47.852,-18.066,316.406
1688815449.392,-130.859,-37.598,-51.270,-44.434,-58.594
1688815449.395,-116.699,-41.992,-53.711,-31.250,-128.418
1688815449.399,-123.535,-34.180,-49.316,-32.715,18.066
1688815449.403,-154.297,-33.203,-44.434,-35.156,67.383
1688815449.407,-159.180,-34.668,-45.410,-47.852,-31.250
1688815449.411,-105.469,-35.156,-52.246,-83.008,6.836
1688815449.415,-67.871,-35.645,-53.711,-75.684,93.262
1688815449.419,-64.941,-33.691,-47.852,-64.453,-75.684
1688815449.422,-77.637,-35.156,-47.363,-56.152,-176.758
1688815449.426,-89.355,-32.715,-47.852,-42.480,38.086
1688815449.430,-62.988,-30.762,-43.945,-62.500,135.254
1688815449.434,-45.898,-31.738,-43.945,-55.664,-130.371
1688815449.438,-72.266,-34.180,-42.969,-50.293,-249.512
1688815449.439,-112.793,-38.574,-43.457,-47.363,-172.852
1688815449.443,-146.973,-36.621,-44.434,-34.180,-100.098
1688815449.447,-145.996,-33.691,-37.598,-59.570,-263.184
1688815449.451,-120.605,-42.969,-39.062,-52.246,-206.543
1688815449.455,-106.934,-48.340,-39.062,-28.809,-19.043
1688815449.459,-117.676,-42.480,-40.039,-26.367,-44.922
1688815449.463,-133.301,-36.133,-44.434,-20.020,-20.996
1688815449.466,-99.609,-37.109,-39.551,-40.527,-118.164
1688815449.470,-64.453,-41.016,-42.969,-57.617,134.766
1688815449.474,-70.801,-39.062,-44.434,-44.922,348.145
1688815449.478,-85.449,-37.598,-44.922,-33.691,-22.949
1688815449.482,-115.234,-41.016,-49.316,-33.203,-38.574
1688815449.484,-113.770,-41.992,-48.828,-61.523,-59.082
1688815449.488,-67.383,-35.645,-46.387,-71.289,-182.617
1688815449.492,-43.457,-32.715,-48.828,-50.293,-163.086
1688815449.496,-49.805,-33.203,-52.246,-44.922,-86.914
1688815449.500,-65.430,-31.738,-47.363,-33.691,-7.812
1688815449.504,-48.340,-32.227,-44.434,-49.316,-57.129
1688815449.508,-6.836,-33.203,-46.875,-68.848,-136.230
1688815449.511,3.906,-37.598,-48.828,-52.734,103.027
1688815449.515,-7.324,-38.086,-50.293,-43.945,336.426
1688815449.519,-35.156,-33.203,-50.293,-39.062,117.676
1688815449.523,-34.180,-35.645,-50.781,-61.035,-104.004
1688815449.527,2.441,-36.621,-51.758,-80.566,-175.781
1688815449.529,14.648,-38.574,-49.805,-76.172,-120.605
1688815449.533,-1.953,-41.504,-44.922,-74.219,-91.309
1688815449.537,-42.480,-40.527,-44.434,-51.758,-129.883
1688815449.541,-60.059,-40.527,-44.922,-59.082,-146.484
1688815449.545,-36.133,-36.133,-43.945,-80.566,-126.465
1688815449.549,-38.574,-37.109,-49.805,-70.312,-110.840
1688815449.553,-64.941,-41.504,-49.805,-56.152,-25.391
1688815449.556,-102.539,-36.133,-47.363,-25.391,265.625
1688815449.560,-129.883,-35.156,-46.875,-26.855,213.379
1688815449.564,-95.215,-38.086,-46.875,-50.293,-48.828
1688815449.568,-70.312,-40.039,-50.293,-39.551,-27.832
1688815449.572,-86.914,-37.598,-51.758,-34.668,71.777
1688815449.574,-124.512,-37.598,-56.152,-33.203,-18.555
1688815449.578,-145.996,-38.574,-55.664,-35.645,-123.047
1688815449.582,-112.305,-37.109,-54.688,-62.988,-94.727
1688815449.586,-87.402,-35.156,-54.688,-58.594,-141.602
1688815449.590,-89.355,-33.691,-54.199,-41.016,-189.941
1688815449.594,-108.398,-29.785,-53.223,-28.809,-111.816
1688815449.598,-130.859,-29.785,-50.781,-20.996,110.352
1688815449.601,-105.957,-34.180,-48.828,-42.969,139.160
1688815449.605,-62.500,-36.133,-46.875,-42.969,-121.582
1688815449.609,-63.477,-38.574,-44.922,-30.762,-145.508
1688815449.613,-103.027,-38.574,-46.387,-18.555,-16.113
1688815449.617,-150.879,-40.527,-48.828,-15.137,47.363
1688815449.618,-148.926,-42.969,-50.781,-45.898,-128.418
1688815449.622,-127.441,-41.504,-52.734,-48.828,-250.977
1688815449.626,-125.488,-41.992,-50.781,-26.367,-124.023
1688815449.630,-156.738,-39.551,-48.340,-15.137,-106.934
1688815449.634,-203.613,-34.180,-48.340,-7.324,-116.211
1688815449.638,-195.312,-41.992,-53.711,-36.133,-41.504
1688815449.642,-161.133,-45.410,-56.641,-45.410,164.551
1688815449.645,-157.715,-38.574,-47.852,-30.273,73.242
1688815449.649,-176.270,-41.992,-48.828,-32.715,-146.973
1688815449.653,-196.777,-38.086,-54.199,-19.043,20.020
1688815449.657,-178.711,-37.598,-52.734,-31.250,154.297
1688815449.661,-119.141,-42.480,-56.641,-53.223,-26.367
1688815449.665,-83.496,-39.551,-59.082,-51.758,-189.941
1688815449.669,-99.609,-40.039,-61.523,-48.340,-14.648
1688815449.673,-141.113,-40.527,-63.965,-39.062,96.680
1688815449.677,-134.277,-41.504,-59.082,-46.875,-146.484
1688815449.681,-96.191,-44.922,-58.105,-62.500,-229.492
1688815449.685,-90.820,-43.945,-55.664,-43.945,-29.297
1688815449.689,-108.887,-41.016,-57.129,-30.273,69.824
1688815449.692,-133.301,-40.527,-59.082,-19.531,-59.570
1688815449.696,-120.117,-41.992,-51.270,-26.367,-120.117
1688815449.700,-80.078,-42.480,-48.828,-41.504,30.273
1688815449.704,-58.594,-42.480,-51.270,-23.438,68.359
1688815449.708,-66.895,-42.969,-52.734,-23.926,-115.234
1688815449.723,-89.355,-46.387,-51.270,-11.230,-78.613
1688815449.727,-92.285,-45.898,-47.852,-14.160,-82.520
1688815449.731,-55.176,-45.410,-49.805,-36.133,-105.957
1688815449.735,-31.250,-44.434,-53.711,-31.250,-43.945
1688815449.739,-40.039,-40.527,-54.688,-25.879,-110.840
1688815449.743,-76.172,-41.992,-56.641,-8.789,236.816
1688815449.747,-100.586,-39.062,-56.152,-10.254,234.375
1688815449.750,-81.055,-38.086,-59.082,-44.922,-175.781
1688815449.754,-79.590,-43.945,-60.547,-51.758,-44.434
1688815449.758,-106.445,-46.387,-62.500,-45.410,215.820
1688815449.762,-141.602,-39.551,-63.965,-39.062,129.883
1688815449.766,-154.785,-31.738,-62.988,-40.039,-114.258
1688815449.769,-135.742,-33.691,-62.500,-66.895,-121.582
1688815449.773,-124.512,-38.574,-61.035,-62.988,-100.098
1688815449.777,-119.141,-37.109,-62.500,-48.828,-126.953
1688815449.781,-132.324,-37.109,-63.477,-38.086,-122.070
1688815449.785,-148.926,-38.086,-62.500,-20.996,-33.203
1688815449.789,-112.793,-39.062,-62.988,-36.133,20.996
1688815449.793,-77.148,-42.969,-68.359,-38.086,19.043
1688815449.796,-72.266,-40.039,-66.406,-28.320,-46.387
1688815449.800,-83.008,-37.598,-61.523,-18.555,115.723
1688815449.804,-110.352,-42.480,-64.453,-4.883,370.117
1688815449.808,-94.727,-41.504,-61.523,-35.156,30.273
1688815449.812,-53.223,-38.574,-57.129,-36.133,-215.820
1688815449.814,-31.738,-39.062,-55.176,-10.742,-167.480
1688815449.818,-44.434,-41.016,-58.105,-7.324,-164.551
1688815449.822,-71.289,-44.922,-61.035,-2.930,-121.582
1688815449.826,-47.852,-41.504,-55.664,-21.484,-147.949
1688815449.830,-11.230,-41.016,-60.547,-24.414,-180.176
1688815449.834,-3.906,-43.945,-65.430,-15.137,-83.008
1688815449.838,-12.695,-41.016,-66.895,-16.113,3.906
1688815449.841,-29.297,-43.457,-72.754,-12.207,-87.891
1688815449.845,-9.766,-42.969,-70.801,-38.086,219.238
1688815449.849,34.180,-39.062,-71.777,-47.363,332.031
1688815449.853,47.363,-35.645,-72.266,-37.109,-81.055
1688815449.857,23.926,-36.621,-72.266,-28.809,-90.820
1688815449.858,-22.461,-41.992,-71.289,-16.113,8.301
1688815449.862,-24.902,-38.574,-67.383,-38.574,-81.055
1688815449.866,8.789,-39.551,-67.871,-54.199,-121.094
1688815449.870,16.113,-39.062,-64.941,-33.691,-42.969
1688815449.874,8.789,-37.598,-62.988,-25.879,-16.602
1688815449.878,-12.695,-41.992,-64.941,-16.602,53.223
1688815449.882,-19.043,-43.945,-64.941,-22.461,25.879
1688815449.885,18.066,-41.504,-67.383,-27.832,44.922
1688815449.889,31.738,-41.016,-71.777,-14.160,113.281
1688815449.893,15.625,-41.992,-67.383,-16.602,-55.664
1688815449.897,-11.230,-38.086,-65.430,-11.719,-32.227
1688815449.901,-26.855,-37.598,-64.941,-19.043,71.289
1688815449.918,4.395,-36.621,-62.988,-43.457,-38.574
1688815449.922,32.715,-36.133,-69.824,-44.922,-101.074
1688815449.926,30.762,-36.621,-69.824,-38.086,-62.988
1688815449.930,-3.906,-34.668,-63.477,-25.391,-14.160
1688815449.934,-22.949,-36.621,-59.082,-30.762,2.930
1688815449.938,14.160,-37.598,-59.082,-55.176,-79.590
1688815449.942,41.504,-41.504,-60.547,-51.270,-84.473
1688815449.945,36.133,-37.598,-56.152,-36.133,64.453
1688815449.949,12.695,-36.621,-52.734,-20.020,123.535
1688815449.953,-0.488,-38.086,-54.688,-29.297,-66.406
1688815449.957,23.438,-35.645,-62.012,-67.383,-98.633
1688815449.961,51.758,-37.109,-61.523,-55.176,35.645
1688815449.964,49.805,-40.039,-59.082,-27.344,-32.227
1688815449.968,19.043,-41.504,-62.012,-10.254,-152.344
1688815449.972,-14.160,-41.016,-59.570,-2.930,-58.105
1688815449.976,-1.953,-41.992,-56.152,-40.527,12.695
1688815449.980,22.949,-38.086,-55.176,-45.410,-98.145
1688815449.984,10.742,-34.668,-50.781,-17.578,-79.102
1688815449.988,-19.531,-34.668,-49.316,-11.719,127.930
1688815449.991,-37.598,-34.180,-51.758,-7.812,103.516
1688815449.995,-6.348,-34.180,-49.805,-24.414,-149.414
1688815449.999,38.086,-33.691,-48.340,-29.785,-202.148
1688815450.003,40.039,-36.133,-48.828,-12.207,28.320
1688815450.007,14.160,-35.645,-41.504,10.254,180.664
1688815449.993,-19.531,-36.133,-37.598,8.301,-59.082
1688815449.997,-8.789,-36.133,-41.016,-30.273,-162.598
1688815450.001,38.574,-35.645,-42.969,-35.645,-85.449
1688815450.005,48.340,-41.992,-46.875,-23.438,-58.594
1688815450.009,34.180,-42.480,-50.293,-17.578,-126.953
1688815450.013,13.672,-41.504,-49.805,-10.254,12.207
1688815450.017,17.090,-43.945,-55.664,-38.086,135.254
1688815450.020,46.387,-42.969,-55.176,-52.246,-39.062
1688815450.024,49.316,-41.016,-49.316,-49.805,-100.586
1688815450.028,24.414,-44.434,-51.758,-52.246,-57.129
1688815450.032,-9.277,-41.016,-52.734,-22.461,154.785
1688815450.036,-7.324,-34.180,-52.734,-27.344,45.410
1688815450.038,23.926,-37.598,-56.641,-55.664,-270.508
1688815450.042,32.227,-36.133,-60.547,-44.922,-96.680
1688815450.046,12.695,-37.109,-60.059,-34.668,185.547
1688815450.050,-22.461,-39.062,-54.688,-22.461,102.539
1688815450.054,-24.414,-31.250,-52.246,-34.180,-143.066
1688815450.058,1.465,-30.273,-58.594,-57.129,-50.293
1688815450.062,14.648,-30.762,-55.664,-40.527,93.262
1688815450.065,-1.465,-30.273,-56.641,-30.762,-99.609
1688815450.069,-37.598,-36.133,-61.523,-31.250,-241.699
1688815450.073,-53.223,-44.434,-57.129,-41.504,-13.184
1688815450.077,-28.809,-48.340,-59.082,-57.129,96.191
1688815450.081,-14.648,-48.828,-62.988,-44.922,-138.672
1688815450.099,-33.691,-47.363,-63.477,-35.156,-195.312
1688815450.103,-61.523,-45.898,-61.035,-19.043,-106.445
1688815450.107,-73.242,-43.945,-60.547,-25.879,-101.562
1688815450.111,-41.504,-43.457,-66.406,-53.711,-229.980
1688815450.115,-5.859,-37.109,-64.941,-32.715,-206.055
1688815450.119,0.000,-32.227,-62.500,-18.066,-53.711
1688815450.123,-21.484,-34.180,-65.918,-17.578,-11.230
1688815450.126,-38.574,-36.133,-66.895,-20.508,-12.695
1688815450.130,-5.371,-40.039,-62.012,-42.480,-80.078
1688815450.134,28.809,-39.062,-61.035,-31.250,157.715
1688815450.138,25.879,-34.180,-64.941,-15.137,289.551
1688815450.142,4.395,-36.621,-66.895,-15.625,-49.316
1688815450.144,-23.926,-41.016,-66.895,-19.043,-116.211
1688815450.148,-4.883,-36.621,-65.918,-50.781,-163.574
1688815450.152,17.090,-38.086,-63.965,-58.105,-229.980
1688815450.156,2.441,-46.387,-66.406,-49.805,-222.168
1688815450.160,-23.438,-44.922,-67.871,-41.016,-173.340
1688815450.164,-35.156,-40.527,-66.895,-22.949,-4.395
1688815450.168,-5.859,-44.922,-60.059,-22.949,47.852
1688815450.171,14.160,-46.875,-50.293,-31.738,-84.961
1688815450.175,0.488,-48.828,-51.758,-29.297,6.836
1688815450.179,-23.926,-57.617,-53.223,-21.484,190.430
1688815450.183,-51.758,-62.012,-49.805,-21.484,19.043
1688815450.187,-37.109,-66.406,-45.410,-46.875,-196.289
1688815450.188,-4.395,-66.406,-40.527,-57.129,-149.414
1688815450.192,-9.766,-69.824,-36.621,-49.316,-52.246
1688815450.196,-28.809,-72.754,-32.715,-41.504,-133.789
1688815450.200,-58.105,-75.684,-35.645,-25.391,-122.559
1688815450.204,-68.359,-85.449,-38.086,-59.570,-113.770
1688815450.208,-33.203,-90.820,-29.297,-86.426,-95.215
1688815450.212,-13.184,-87.402,-20.996,-69.824,-63.477
1688815450.215,-28.809,-88.867,-21.973,-65.430,-134.277
1688815450.219,-72.754,-92.773,-21.484,-61.523,253.418
1688815450.223,-103.516,-94.727,-18.555,-98.145,389.160
1688815450.227,-73.730,-99.609,-13.672,-131.348,-75.195
1688815450.231,-58.594,-105.469,-8.789,-113.281,-116.699
1688815450.233,-71.777,-108.398,-9.766,-99.609,-78.125
1688815450.237,-102.051,-109.375,-3.906,-72.266,-145.508
1688815450.241,-109.375,-105.957,1.465,-80.078,-129.883
1688815450.245,-71.777,-104.980,4.395,-91.309,-60.059
1688815450.249,-53.711,-105.957,12.695,-73.730,18.066
1688815450.253,-59.082,-109.863,17.578,-75.684,-80.078
1688815450.257,-90.820,-108.887,14.160,-65.918,-65.430
1688815450.260,-107.910,-104.980,10.254,-66.406,107.910
1688815450.264,-70.312,-105.957,10.742,-74.707,127.441
1688815450.268,-44.434,-106.934,8.789,-62.012,-145.996
1688815450.272,-41.016,-110.352,8.789,-56.152,-185.059
1688815450.276,-63.477,-109.375,10.742,-47.363,-59.570
1688815450.294,-80.566,-105.469,11.719,-51.270,-87.891
1688815450.298,-37.598,-106.445,11.719,-76.172,-188.965
1688815450.302,-1.953,-102.539,11.230,-62.500,-162.598
1688815450.306,-1.465,-94.238,8.789,-56.152,-45.898
1688815450.310,-19.531,-90.332,4.395,-58.594,-73.730
1688815450.314,-29.297,-87.402,2.441,-43.457,28.809
1688815450.318,3.418,-84.961,1.465,-62.500,57.617
1688815450.321,30.273,-83.984,0.000,-60.059,45.410
1688815450.325,20.996,-78.125,-4.883,-42.969,-6.836
1688815450.329,7.812,-75.195,-7.324,-23.438,-88.867
1688815450.333,-3.418,-72.266,-2.930,0.000,-65.918
1688815450.337,18.555,-70.801,-5.859,-18.555,138.672
1688815450.324,50.293,-68.848,-10.742,-20.996,12.207
1688815450.328,45.898,-63.965,-14.160,-16.602,-209.961
1688815450.332,21.973,-63.477,-22.461,-20.020,-66.406
1688815450.336,-4.395,-58.594,-25.879,-16.113,4.395
1688815450.340,13.184,-53.223,-21.484,-26.367,-32.715
1688815450.344,46.875,-55.176,-25.879,-25.391,-119.141
1688815450.348,42.480,-56.152,-31.738,-9.277,48.828
1688815450.351,9.766,-55.176,-30.762,9.277,189.453
1688815450.355,-19.043,-59.570,-31.250,16.602,-20.020
1688815450.359,-9.766,-59.082,-31.250,-15.137,-175.293
1688815450.363,14.160,-44.922,-30.762,-21.484,-2.441
1688815450.367,30.273,-33.203,-23.926,-0.977,175.781
1688815450.368,16.602,-32.227,-19.043,1.953,-80.566
1688815450.372,-22.949,-33.691,-21.484,23.926,-78.125
1688815450.376,-26.855,-35.645,-25.391,0.977,-24.414
1688815450.380,-1.953,-38.086,-25.391,-26.367,-99.609
1688815450.384,0.977,-33.691,-27.344,-6.836,-103.027
1688815450.388,-4.395,-29.785,-26.367,7.324,-27.344
1688815450.392,-20.508,-30.762,-24.902,24.414,198.242
1688815450.395,-19.043,-31.250,-29.785,5.371,98.633
1688815450.399,19.531,-32.715,-30.273,-26.855,-100.098
1688815450.403,34.668,-30.762,-30.273,-14.648,-13.184
1688815450.407,30.762,-27.832,-29.297,0.977,179.688
1688815450.411,5.859,-29.785,-29.785,20.020,168.945
1688815450.413,-9.277,-37.598,-31.738,11.719,-119.629
1688815450.417,18.555,-40.527,-33.203,-15.625,-142.090
1688815450.421,38.574,-34.668,-32.227,-4.395,-97.168
1688815450.425,34.668,-34.180,-33.691,2.441,-153.809
1688815450.429,8.301,-30.762,-37.109,10.254,-161.133
1688815450.433,-1.465,-26.855,-36.621,12.207,84.473
1688815450.437,33.691,-28.320,-36.621,-11.230,142.090
1688815450.440,55.664,-26.855,-37.109,-8.789,-125.000
1688815450.444,44.434,-24.414,-36.621,7.324,-231.934
1688815450.448,26.855,-23.438,-32.227,15.625,104.980
1688815450.452,13.672,-30.273,-35.645,10.742,251.465
1688815450.456,37.598,-31.250,-36.621,-24.902,-132.812
1688815450.474,62.012,-29.297,-33.203,-24.902,-158.691
1688815450.478,54.688,-27.344,-36.621,-15.625,-109.863
1688815450.482,26.367,-31.250,-40.527,-18.555,-111.816
1688815450.486,2.441,-37.598,-39.551,-17.090,-123.535
1688815450.490,25.391,-33.203,-43.457,-42.969,-96.680
1688815450.494,50.781,-30.762,-50.781,-40.039,60.059
1688815450.498,54.199,-28.320,-48.340,-19.043,40.527
1688815450.501,37.598,-25.879,-47.363,-6.836,-81.055
1688815450.505,9.277,-31.250,-49.805,-3.906,2.441
1688815450.509,26.367,-33.203,-46.875,-25.391,282.227
1688815450.513,54.688,-29.297,-42.969,-20.508,200.684
1688815450.517,49.805,-25.391,-46.387,-10.254,-130.371
1688815450.519,18.066,-26.367,-50.293,-3.906,1.465
1688815450.523,-18.555,-28.809,-48.340,8.301,109.375
1688815450.527,-6.348,-28.320,-51.270,-24.414,-91.797
1688815450.531,20.020,-31.250,-52.734,-42.969,-166.992
1688815450.535,14.160,-32.715,-46.875,-21.973,-60.059
1688815450.539,0.977,-27.832,-44.922,-11.230,-11.719
1688815450.543,-20.996,-28.809,-47.852,-9.766,84.961
1688815450.546,-11.230,-31.738,-50.293,-30.762,-54.199
1688815450.550,19.531,-28.809,-47.363,-32.715,-40.527
1688815450.554,29.297,-26.855,-50.293,-24.414,154.785
1688815450.558,19.043,-30.273,-57.129,-21.484,-44.922
1688815450.562,-17.578,-30.762,-53.711,-4.883,-54.688
1688815450.565,-19.043,-32.227,-51.270,-20.508,-72.754
1688815450.569,13.184,-34.668,-49.316,-43.945,-100.098
1688815450.573,12.695,-29.297,-50.293,-27.832,-50.293
1688815450.577,-11.719,-33.203,-58.105,-24.414,-124.023
1688815450.581,-48.828,-36.621,-57.617,-10.742,-37.598
1688815450.585,-51.270,-32.227,-55.664,-12.207,4.883
1688815450.589,-18.066,-30.762,-53.223,-31.738,-81.543
1688815450.592,-2.441,-27.832,-50.293,-21.973,-142.578
1688815450.596,-8.789,-23.926,-45.898,-4.395,189.941
1688815450.600,-42.969,-18.555,-44.434,17.090,310.059
1688815450.604,-64.453,-20.996,-53.223,-2.441,-114.746
1688815450.608,-34.180,-22.461,-56.152,-32.227,-128.418
1688815450.609,-20.020,-27.344,-56.152,-11.230,46.875
1688815450.613,-35.645,-32.227,-60.059,-5.371,-119.141
1688815450.617,-60.059,-31.738,-58.594,-18.066,-181.641
1688815450.621,-71.777,-28.809,-56.641,-20.508,-54.688
1688815450.625,-41.016,-26.367,-54.688,-35.645,-35.645
1688815450.629,-11.230,-25.391,-53.711,-34.668,-47.852
1688815450.633,-19.531,-26.855,-57.617,-22.949,-86.914
1688815450.636,-49.805,-30.273,-59.082,-7.324,84.961
1688815450.640,-61.523,-33.203,-63.477,-1.953,299.316
1688815450.644,-30.762,-33.203,-65.430,-41.016,-14.648
1688815450.648,-0.977,-32.227,-60.547,-49.805,-173.340
1688815450.652,2.930,-31.738,-62.500,-39.551,-114.746
1688815450.668,-25.879,-30.762,-66.895,-40.039,-116.699
1688815450.672,-51.270,-26.367,-61.035,-21.973,-123.047
1688815450.676,-17.578,-28.809,-58.105,-29.785,-229.004
1688815450.680,19.531,-32.227,-53.711,-20.508,-170.898
1688815450.684,2.441,-23.926,-53.223,-7.812,-83.984
1688815450.688,-36.621,-23.438,-64.941,-8.789,-56.641
1688815450.692,-67.383,-23.438,-63.477,-12.695,25.391
1688815450.695,-52.246,-20.508,-60.059,-36.621,131.348
1688815450.699,-23.438,-24.414,-61.523,-32.715,44.434
1688815450.703,-21.484,-24.902,-59.570,-25.391,-145.020
1688815450.707,-29.785,-19.531,-57.129,-16.113,-161.621
1688815450.711,-54.199,-18.066,-56.641,4.883,219.238
1688815450.698,-44.922,-23.926,-58.594,-16.602,208.984
1688815450.702,-9.277,-26.855,-58.594,-36.133,-200.195
1688815450.706,0.977,-23.926,-58.105,-25.391,-126.953
1688815450.710,-8.301,-21.484,-54.688,-11.230,-49.805
1688815450.714,-37.598,-24.902,-55.176,-9.277,-134.277
1688815450.718,-26.855,-27.832,-59.570,-33.691,-53.711
1688815450.722,11.719,-25.391,-57.617,-39.551,46.387
1688815450.725,16.602,-19.531,-58.594,-23.438,-74.219
1688815450.729,-6.348,-24.414,-57.129,-16.113,-127.930
1688815450.733,-47.363,-31.250,-54.688,-9.277,-68.848
1688815450.737,-47.852,-25.391,-52.246,-18.555,102.051
1688815450.741,-8.301,-25.879,-52.246,-31.250,208.984
1688815450.744,0.488,-27.832,-53.223,-24.902,-55.176
1688815450.748,-21.484,-30.762,-51.270,-24.902,-216.309
1688815450.752,-60.547,-32.715,-53.711,-13.184,-96.191
1688815450.756,-74.707,-34.180,-50.293,-36.133,-65.430
1688815450.760,-48.340,-37.598,-41.016,-59.570,-238.770
1688815450.764,-34.668,-33.691,-39.551,-43.457,-140.625
1688815450.768,-56.152,-32.227,-43.945,-41.504,179.688
1688815450.771,-83.496,-37.109,-38.086,-20.508,80.078
1688815450.775,-65.918,-33.203,-33.691,-3.906,-161.621
1688815450.779,-28.320,-19.043,-45.410,-34.668,-114.258
1688815450.783,-24.414,-7.812,-59.082,-49.316,93.262
1688815450.787,-48.340,-9.277,-72.266,-47.852,67.871
1688815450.820,-83.008,-13.672,-76.660,-59.082,-115.723
1688815450.824,-96.191,-5.859,-80.566,-80.078,-30.273
1688815450.828,-70.801,-2.441,-87.891,-113.281,-38.086
1688815450.832,-52.734,-7.324,-95.703,-108.887,-164.062
1688815450.836,-63.965,-2.930,-104.980,-109.375,-197.754
1688815450.840,-100.586,0.977,-111.816,-103.516,44.434
1688815450.844,-126.953,0.977,-113.770,-106.445,313.965
1688815450.847,-100.586,7.812,-119.141,-143.555,11.230
1688815450.851,-79.590,16.602,-128.418,-145.996,-145.020
1688815450.855,-86.426,19.043,-130.859,-143.066,-63.477
1688815450.859,-105.469,19.531,-131.836,-136.230,-3.418
1688815450.863,-133.301,28.809,-136.230,-132.324,-126.465
1688815450.840,-117.676,27.832,-141.602,-158.691,-266.113
1688815450.844,-83.984,26.855,-141.602,-152.832,-124.023
1688815450.848,-79.590,30.762,-135.254,-135.254,23.926
1688815450.852,-94.238,33.203,-138.184,-130.859,-92.773
1688815450.856,-123.047,33.691,-140.137,-127.441,-87.891
1688815450.860,-107.422,30.762,-136.719,-152.344,115.723
1688815450.864,-61.523,28.809,-138.672,-142.090,86.914
1688815450.867,-51.270,24.902,-135.742,-110.840,-88.867
1688815450.871,-59.570,21.973,-127.441,-97.168,-63.965
1688815450.875,-75.684,19.531,-122.070,-70.312,28.320
1688815450.879,-59.082,16.113,-120.605,-87.402,-92.773
1688815450.883,-20.508,9.766,-120.605,-106.934,-208.008
1688815450.893,-2.441,9.766,-114.258,-92.773,-132.812
1688815450.897,-16.113,13.672,-109.375,-73.730,83.496
1688815450.901,-52.734,8.301,-111.328,-68.848,13.184
1688815450.905,-36.621,4.395,-108.398,-96.680,-133.789
1688815450.909,3.418,1.953,-104.004,-93.750,9.277
1688815450.913,12.207,2.930,-100.098,-64.941,346.191
1688815450.917,-2.441,0.000,-91.797,-54.688,465.820
1688815450.920,-34.180,-5.859,-86.426,-44.434,204.590
1688815450.924,-34.180,-4.395,-85.938,-67.871,-54.199
1688815450.928,1.953,-1.953,-82.031,-81.543,-86.426
1688815450.932,18.066,-3.906,-80.078,-64.453,-158.691
1688815450.936,2.930,-8.789,-78.125,-62.012,-177.246
1688815450.939,-29.785,-8.789,-76.172,-45.410,-54.688
1688815450.943,-35.645,-12.207,-79.590,-56.152,-95.215
1688815450.947,1.953,-11.719,-80.078,-78.613,-229.492
1688815450.951,17.578,-11.230,-73.730,-57.129,-180.176
1688815450.955,9.766,-18.555,-76.172,-46.387,-133.301
1688815450.959,-11.230,-19.531,-76.172,-33.203,7.812
1688815450.963,-22.949,-18.066,-78.125,-38.086,49.805
1688815450.966,6.836,-17.090,-80.078,-59.570,-95.215
1688815450.970,29.785,-15.625,-70.801,-40.527,153.809
1688815450.974,18.555,-17.090,-65.430,-25.879,345.215
1688815450.978,-21.973,-15.625,-64.941,-13.672,3.906
1688815450.982,-39.062,-19.531,-62.988,-34.668,-115.723
1688815450.984,-3.906,-22.461,-61.035,-66.895,-177.734
1688815450.988,12.207,-23.438,-61.035,-53.711,-245.605
1688815450.992,-0.488,-22.949,-61.523,-45.898,-177.246
1688815450.996,-20.020,-22.461,-61.035,-27.344,-82.520
1688815451.000,-40.039,-30.762,-57.129,-9.766,-9.277
1688815451.004,-1.465,-28.320,-51.758,-24.414,-32.227
1688815451.008,14.160,-19.531,-57.617,-38.086,-65.918
1688815451.011,-17.090,-16.113,-62.988,-54.688,35.156
1688815451.015,-40.039,-19.531,-63.477,-48.828,188.477
1688815451.019,-70.312,-17.090,-66.895,-47.852,26.855
1688815451.023,-52.734,-9.277,-68.359,-71.777,-186.035
1688815451.027,-25.879,-11.719,-65.918,-69.824,-67.383
1688815451.029,-40.039,-13.184,-67.383,-70.801,-7.324
1688815451.033,-61.035,-11.719,-66.895,-62.988,-121.582
1688815451.037,-81.543,-12.207,-63.477,-53.711,-12.695
1688815451.041,-59.570,-12.207,-59.082,-78.613,-15.625
1688815451.045,-23.438,-14.648,-56.641,-77.637,-122.070
1688815451.049,-17.090,-19.531,-58.105,-53.223,-56.152
1688815451.053,-27.344,-21.973,-52.246,-39.062,-53.223
1688815451.056,-55.664,-24.414,-48.828,-22.949,117.676
1688815451.060,-45.410,-27.344,-53.223,-43.457,147.461
1688815451.064,-12.207,-29.297,-51.270,-55.176,-139.160
1688815451.068,-13.184,-31.250,-47.852,-39.062,-160.156
1688815451.072,-30.273,-28.809,-48.828,-20.996,92.773
1688815451.074,-62.988,-25.879,-53.711,-8.789,25.391
1688815451.078,-61.035,-23.926,-53.223,-36.133,-184.570
1688815451.082,-11.230,-20.508,-54.199,-28.320,-150.391
1688815451.086,2.930,-27.344,-55.664,-16.113,-122.070
1688815451.090,-9.766,-28.809,-49.805,-27.832,-124.023
1688815451.094,-31.738,-23.438,-48.828,-17.578,-94.238
1688815451.098,-29.785,-28.320,-50.781,-31.250,111.328
1688815451.101,7.812,-27.832,-50.293,-36.133,167.480
1688815451.105,22.461,-25.879,-46.387,-20.508,-123.535
1688815451.109,9.766,-22.461,-39.062,-19.043,-229.980
1688815451.113,-27.832,-21.973,-41.504,-5.371,-144.043
1688815451.117,-33.691,-26.367,-48.340,-14.160,-104.004
1688815451.120,0.000,-26.367,-48.340,-36.133,-203.613
1688815451.124,4.395,-28.320,-44.922,-24.414,-168.457
1688815451.128,-6.348,-25.879,-45.410,-17.578,-42.969
1688815451.132,-43.457,-29.785,-51.758,-15.625,2.441
1688815451.136,-59.082,-36.621,-50.293,-25.879,-36.621
1688815451.140,-20.996,-35.156,-46.875,-47.363,-57.617
1688815451.144,-8.789,-34.668,-49.316,-41.504,119.141
1688815451.147,-23.438,-36.133,-51.270,-30.273,19.043
1688815451.151,-42.969,-31.250,-47.852,-12.207,-94.727
1688815451.155,-60.547,-32.227,-45.898,-23.926,14.160
1688815451.159,-24.414,-38.574,-43.945,-40.527,89.355
1688815451.163,16.602,-29.785,-43.457,-13.184,-12.207
1688815451.164,0.488,-18.555,-49.316,-28.320,-235.352
1688815451.168,-32.227,-20.020,-50.293,-28.320,-109.375
1688815451.172,-48.828,-24.414,-50.781,-14.648,-91.309
1688815451.176,-31.250,-27.344,-54.688,-54.199,-169.922
1688815451.180,-10.254,-32.715,-59.570,-62.012,-218.262
1688815451.184,-8.301,-29.785,-54.688,-40.039,-53.223
1688815451.188,-32.227,-30.762,-54.688,-23.438,292.969
1688815451.191,-60.059,-38.574,-58.105,-20.508,100.098
1688815451.195,-34.180,-32.715,-52.734,-49.805,-185.547
1688815451.199,-5.371,-32.227,-50.781,-52.246,-129.395
1688815451.203,-10.742,-32.715,-51.270,-35.645,-78.613
1688815451.207,-31.250,-28.320,-48.340,-34.668,-132.812
1688815451.224,-57.617,-30.762,-47.852,-27.832,-109.375
1688815451.228,-41.016,-28.809,-50.781,-58.594,-93.262
1688815451.232,-9.277,-26.367,-50.781,-61.523,-117.188
1688815451.236,-12.207,-31.250,-50.781,-41.992,-160.156
1688815451.240,-38.574,-34.668,-52.246,-47.363,-101.562
1688815451.244,-68.848,-38.086,-53.223,-50.781,68.359
1688815451.248,-52.246,-41.016,-50.781,-71.777,-50.781
1688815451.251,-15.137,-39.062,-50.781,-82.520,-203.613
1688815451.255,-9.277,-36.133,-48.828,-67.871,-157.227
1688815451.259,-23.926,-32.715,-45.898,-44.434,122.070
1688815451.263,-46.875,-31.738,-43.945,-24.902,296.875
1688815451.267,-42.480,-33.203,-43.945,-47.363,-18.066
1688815451.269,-7.324,-31.738,-42.480,-62.988,-145.508
1688815451.273,0.977,-33.203,-41.016,-49.805,-107.422
1688815451.277,-14.648,-29.785,-41.992,-40.039,-146.484
1688815451.281,-41.992,-27.832,-47.852,-33.691,-107.910
1688815451.285,-51.270,-33.691,-49.316,-50.293,-51.758
1688815451.289,-22.461,-33.203,-46.875,-64.453,36.621
1688815451.293,-8.789,-32.715,-47.852,-49.316,0.000
1688815451.296,-19.043,-33.203,-47.852,-46.387,-129.395
1688815451.300,-40.527,-31.250,-49.316,-35.156,108.398
1688815451.304,-44.922,-25.879,-48.828,-38.574,357.910
1688815451.308,-10.254,-22.461,-51.758,-67.383,-18.066
1688815451.312,6.836,-20.996,-54.688,-53.223,-226.562
1688815451.313,1.465,-18.555,-53.223,-38.086,-116.699
1688815451.317,-19.043,-23.438,-50.293,-29.785,1.953
1688815451.321,-32.715,-25.391,-53.711,-33.203,6.348
1688815451.325,-1.465,-21.973,-52.734,-56.641,-163.574
1688815451.329,21.484,-21.973,-47.363,-43.457,-105.957
1688815451.333,7.812,-24.902,-46.875,-30.273,2.930
1688815451.337,-24.414,-27.344,-49.316,-22.949,69.336
1688815451.340,-45.898,-34.668,-51.270,-32.227,8.301
1688815451.344,-17.578,-37.109,-49.316,-58.105,197.754
1688815451.348,11.230,-27.344,-45.410,-38.086,371.582
1688815451.352,-2.930,-27.344,-43.457,-34.668,56.152
1688815451.356,-36.133,-32.227,-47.363,-41.992,17.578
1688815451.359,-62.012,-30.762,-49.316,-41.504,71.289
1688815451.363,-41.016,-31.250,-48.828,-63.965,-92.773
1688815451.367,-11.230,-31.250,-52.734,-60.059,-174.805
1688815451.371,-10.254,-25.879,-52.734,-41.016,-96.191
1688815451.375,-28.809,-23.926,-49.316,-22.461,-42.480
1688815451.379,-54.688,-29.297,-46.387,-18.066,-27.344
1688815451.383,-33.203,-26.855,-42.969,-48.828,-150.879
1688815451.386,-3.906,-22.461,-37.109,-44.434,-47.363
1688815451.390,-8.789,-24.902,-40.527,-22.949,164.062
1688815451.394,-26.367,-26.367,-44.922,-36.133,-56.641
1688815451.398,-54.688,-24.414,-43.945,-39.062,-130.371
1688815451.402,-45.898,-20.508,-46.387,-63.477,-141.602
1688815451.404,-11.719,-22.949,-47.363,-72.266,-163.086
1688815451.408,4.395,-26.855,-42.969,-50.781,-153.320
1688815451.412,-5.859,-25.879,-34.668,-42.969,-169.434
1688815451.416,-37.109,-23.438,-30.762,-21.973,-37.109
1688815451.420,-29.785,-20.996,-34.668,-41.992,-77.148
1688815451.424,-0.977,-25.879,-41.504,-60.059,-95.703
1688815451.428,-3.418,-26.367,-40.527,-42.969,-106.934
1688815451.431,-21.484,-26.855,-39.551,-24.902,115.234
1688815451.435,-53.223,-26.855,-40.039,-5.859,334.961
1688815451.439,-53.223,-25.879,-35.645,-29.785,-28.320
1688815451.443,-23.926,-28.809,-31.738,-43.945,-160.156
1688815451.447,-15.137,-31.250,-37.598,-27.832,8.789
1688815451.448,-28.320,-32.227,-41.504,-14.160,-32.227
1688815451.452,-59.082,-29.785,-39.062,-3.418,-85.938
1688815451.456,-60.547,-32.227,-39.062,-20.508,49.805
1688815451.460,-25.879,-31.738,-37.598,-45.898,45.410
1688815451.464,-14.160,-30.273,-41.016,-34.668,-129.883
1688815451.468,-35.156,-28.809,-44.922,-25.879,-89.844
1688815451.472,-66.895,-29.297,-42.969,-18.066,164.551
1688815451.475,-66.895,-30.273,-44.922,-23.438,293.945
1688815451.479,-38.574,-35.645,-46.875,-51.270,-38.574
1688815451.483,-31.738,-37.109,-45.898,-43.457,-210.449
1688815451.487,-41.992,-37.109,-49.316,-42.969,-183.594
1688815451.491,-65.430,-41.016,-50.293,-39.062,-140.625
1688815451.509,-83.984,-41.992,-45.410,-39.062,-74.707
1688815451.513,-54.688,-43.457,-50.781,-62.988,-128.418
1688815451.517,-38.574,-42.480,-57.129,-62.500,-164.551
1688815451.521,-49.316,-39.551,-51.758,-50.781,-136.719
1688815451.525,-64.453,-38.086,-52.246,-34.180,-104.980
1688815451.529,-75.684,-36.621,-49.805,-37.109,-4.395
1688815451.533,-44.922,-35.156,-49.316,-51.270,178.711
1688815451.536,-8.789,-30.762,-45.410,-32.227,116.211
1688815451.540,-5.371,-37.109,-44.434,-26.367,-35.156
1688815451.544,-37.109,-40.527,-57.129,-30.273,-78.125
1688815451.548,-66.895,-27.832,-59.082,-25.391,174.805
1688815451.552,-45.898,-28.809,-51.270,-50.781,152.832
1688815451.539,-21.973,-35.156,-46.387,-59.570,-135.742
1688815451.543,-32.715,-34.180,-47.363,-53.223,-91.797
1688815451.547,-56.152,-30.762,-44.922,-49.805,-94.727
1688815451.551,-78.125,-28.320,-37.598,-38.574,-72.266
1688815451.555,-53.711,-30.762,-37.598,-59.082,-152.832
1688815451.559,-19.043,-32.715,-41.992,-63.965,-74.707
1688815451.563,-25.391,-30.273,-41.504,-42.480,59.082
1688815451.566,-54.199,-32.227,-41.016,-30.273,-27.344
1688815451.570,-88.379,-36.133,-41.504,-34.668,-49.805
1688815451.574,-78.613,-33.691,-38.086,-57.129,43.457
1688815451.578,-49.316,-34.668,-37.598,-52.734,105.957
1688815451.582,-55.664,-33.691,-39.062,-41.504,-94.727
1688815451.599,-88.379,-31.250,-40.527,-38.574,-156.738
1688815451.603,-133.789,-29.297,-43.945,-25.391,27.344
1688815451.607,-115.234,-24.902,-43.457,-42.480,0.977
1688815451.611,-59.570,-22.949,-40.527,-52.734,-178.711
1688815451.615,-47.363,-21.973,-44.434,-37.109,-158.691
1688815451.619,-45.898,-18.555,-44.922,-26.855,-62.988
1688815451.623,-62.500,-19.043,-40.039,-8.301,-62.012
1688815451.626,-58.105,-21.973,-38.574,-27.832,-171.875
1688815451.630,-21.484,-21.484,-40.039,-54.199,-247.070
1688815451.634,-13.672,-24.902,-42.969,-36.133,126.953
1688815451.638,-27.832,-25.879,-40.039,-22.949,297.852
1688815451.642,-58.105,-24.902,-34.668,-15.625,-50.781
1688815451.644,-75.195,-25.391,-37.109,-30.762,-131.348
1688815451.648,-51.270,-25.879,-37.109,-58.105,-130.859
1688815451.652,-37.109,-25.391,-30.273,-49.316,-157.227
1688815451.656,-50.781,-23.438,-31.738,-44.922,-163.574
1688815451.660,-84.961,-22.949,-41.992,-33.203,-70.312
1688815451.664,-93.262,-26.367,-43.457,-43.945,47.852
1688815451.668,-53.711,-25.879,-37.598,-62.500,-57.617
1688815451.671,-38.086,-20.996,-38.086,-48.828,-165.039
1688815451.675,-45.410,-21.973,-47.363,-43.945,55.664
1688815451.679,-66.895,-22.949,-51.270,-38.086,179.199
1688815451.683,-80.078,-22.949,-47.852,-49.316,-54.688
1688815451.687,-45.898,-24.902,-42.480,-64.453,-155.273
1688815451.688,-28.320,-26.855,-44.434,-55.176,135.254
1688815451.692,-40.039,-28.809,-48.340,-52.734,260.254
1688815451.696,-62.500,-31.250,-49.805,-48.828,-16.113
1688815451.700,-87.402,-31.250,-48.340,-55.664,-127.441
1688815451.704,-62.012,-26.855,-48.340,-85.449,-174.805
1688815451.708,-37.109,-24.414,-49.316,-74.219,-95.703
1688815451.712,-42.480,-22.949,-52.246,-62.012,-94.238
1688815451.715,-65.918,-25.391,-49.316,-53.223,-155.762
1688815451.719,-95.703,-26.855,-41.504,-39.062,225.098
1688815451.723,-76.660,-28.320,-43.457,-65.918,336.426
1688815451.727,-45.410,-28.320,-40.039,-71.777,-41.016
1688815451.731,-45.410,-30.273,-37.109,-56.641,-47.363
1688815451.735,-65.918,-35.645,-37.109,-48.340,26.855
1688815451.739,-87.891,-37.598,-38.086,-36.621,-72.266
1688815451.743,-66.895,-38.086,-38.574,-60.547,-224.609
1688815451.747,-36.621,-39.062,-39.062,-62.012,-114.746
1688815451.751,-28.320,-38.086,-40.527,-47.363,0.977
1688815451.755,-49.316,-37.109,-41.992,-46.387,-74.219
1688815451.759,-81.055,-33.691,-44.434,-44.922,-68.848
1688815451.762,-71.777,-34.668,-45.898,-69.824,45.898
1688815451.766,-39.062,-33.691,-45.410,-63.965,54.688
1688815451.770,-37.109,-31.250,-46.875,-41.504,-117.676
1688815451.774,-65.918,-36.621,-49.805,-43.457,-199.707
1688815451.778,-99.121,-38.086,-52.734,-34.668,11.230
1688815451.779,-98.145,-38.086,-50.781,-53.223,120.117
1688815451.783,-63.965,-38.086,-40.039,-65.918,-155.762
1688815451.787,-58.594,-38.086,-36.621,-39.062,-211.914
1688815451.791,-84.961,-37.109,-42.480,-29.785,-47.852
1688815451.795,-119.141,-38.574,-44.434,-23.926,30.762
1688815451.799,-107.422,-38.574,-47.852,-47.852,-12.695
1688815451.803,-66.406,-35.645,-48.828,-74.219,-103.516
1688815451.806,-59.082,-34.668,-46.387,-49.316,163.086
1688815451.810,-82.031,-33.203,-44.922,-33.203,322.754
1688815451.814,-134.766,-38.086,-41.992,-32.715,13.184
1688815451.818,-158.203,-37.598,-41.504,-43.457,-70.801
1688815451.822,-124.023,-39.062,-43.457,-54.688,-11.719
1688815451.839,-100.586,-43.945,-47.363,-41.016,-136.719
1688815451.843,-102.051,-38.574,-46.875,-46.387,-270.508
1688815451.847,-126.953,-37.109,-43.945,-37.598,-133.789
1688815451.851,-129.883,-36.133,-39.551,-31.738,-95.703
1688815451.855,-88.379,-32.227,-38.086,-52.734,-140.137
1688815451.859,-70.312,-33.691,-37.109,-56.152,-72.266
1688815451.863,-71.289,-34.180,-37.109,-47.363,66.895
1688815451.866,-88.867,-32.715,-42.480,-33.691,306.152
1688815451.870,-95.703,-27.832,-39.551,-46.387,110.840
1688815451.874,-59.570,-24.414,-31.738,-66.895,-222.656
1688815451.878,-34.668,-24.902,-33.203,-58.105,-173.828
1688815451.882,-35.645,-22.461,-39.062,-43.457,-114.746
1688815451.868,-56.641,-21.973,-37.598,-31.250,-171.875
1688815451.872,-83.496,-28.809,-37.598,-37.598,-119.629
1688815451.876,-59.082,-29.785,-36.133,-53.223,-96.680
1688815451.880,-32.227,-27.832,-39.551,-44.434,-100.586
1688815451.884,-41.504,-26.367,-41.992,-42.969,-94.727
1688815451.888,-67.383,-26.367,-40.527,-32.227,39.551
1688815451.892,-92.773,-26.367,-43.945,-27.832,127.930
1688815451.895,-73.730,-25.391,-44.434,-61.523,-68.848
1688815451.899,-46.875,-29.297,-47.363,-63.477,-158.691
1688815451.903,-46.387,-27.344,-51.270,-57.129,-41.992
1688815451.907,-66.406,-25.879,-50.781,-47.852,260.254
1688815451.911,-91.797,-27.344,-50.293,-34.668,362.305
1688815451.913,-67.383,-24.414,-44.434,-59.082,-49.316
1688815451.917,-33.691,-22.461,-39.551,-74.219,-204.590
1688815451.921,-32.715,-24.902,-44.922,-60.059,-101.074
1688815451.925,-48.828,-25.391,-45.898,-44.922,-160.645
1688815451.929,-75.195,-27.344,-43.945,-34.180,-169.434
1688815451.933,-66.895,-28.809,-45.410,-47.852,52.246
1688815451.937,-42.480,-30.273,-42.969,-50.781,69.824
1688815451.940,-37.598,-24.902,-40.527,-39.062,-175.293
1688815451.944,-56.641,-22.461,-42.480,-33.691,-213.379
1688815451.948,-85.938,-20.020,-45.898,-18.066,73.242
1688815451.952,-75.684,-17.090,-41.992,-38.574,139.648
1688815451.956,-46.387,-18.555,-40.527,-56.641,-171.387
1688815451.974,-36.621,-12.695,-43.945,-37.109,-140.625
1688815451.978,-47.363,-12.207,-47.852,-25.391,-6.836
1688815451.982,-74.707,-16.113,-43.945,-13.672,-12.695
1688815451.986,-71.289,-19.531,-40.527,-35.156,-122.070
1688815451.990,-36.621,-25.391,-44.922,-59.082,-147.461
1688815451.994,-25.391,-22.949,-48.340,-41.504,-16.602
1688815451.998,-36.133,-19.531,-44.434,-21.484,30.762
1688815452.001,-67.383,-19.531,-45.410,-3.906,-41.016
1688815452.005,-67.871,-22.461,-43.945,-26.855,-40.039
1688815452.009,-29.297,-24.414,-36.621,-55.176,246.094
1688815452.013,-19.043,-20.508,-39.062,-37.598,206.055
1688815452.017,-22.461,-19.043,-43.457,-44.434,-132.812
1688815452.021,-42.480,-16.602,-41.992,-37.598,-32.715
1688815452.025,-56.152,-13.184,-38.574,-34.180,46.387
1688815452.029,-30.273,-17.090,-40.039,-65.430,-32.227
1688815452.033,-11.230,-17.090,-43.945,-60.059,-98.145
1688815452.037,-21.484,-17.090,-41.992,-41.992,36.621
1688815452.041,-55.664,-18.555,-35.645,-29.785,216.797
1688815452.045,-76.172,-18.555,-36.621,-37.598,53.223
1688815452.048,-50.781,-26.367,-41.992,-69.336,-155.762
1688815452.052,-27.832,-26.855,-40.527,-57.129,-76.172
1688815452.056,-30.273,-22.949,-41.504,-45.410,36.621
1688815452.060,-57.129,-28.809,-46.387,-46.875,-197.266
1688815452.064,-74.707,-33.203,-46.387,-45.898,-167.969
1688815452.064,-35.645,-26.855,-43.945,-69.824,-141.113
1688815452.068,-6.348,-28.320,-46.387,-61.523,-134.766
1688815452.072,-11.230,-31.738,-47.852,-47.363,-122.070
1688815452.076,-25.391,-26.855,-41.992,-38.086,-94.238
1688815452.080,-47.363,-24.902,-39.551,-17.090,-13.184
1688815452.084,-29.785,-25.879,-42.480,-52.734,-81.055
1688815452.088,-1.953,-24.902,-47.852,-64.941,-85.938
1688815452.091,2.930,-21.484,-50.293,-53.711,-85.938
1688815452.095,-16.602,-21.973,-47.852,-57.617,137.695
1688815452.099,-49.805,-21.973,-44.434,-39.551,415.527
1688815452.103,-32.227,-24.414,-45.898,-60.059,79.102
1688815452.107,-1.465,-23.438,-44.922,-71.777,-238.281
1688815452.124,-2.930,-20.020,-37.598,-56.641,-192.871
1688815452.128,-21.973,-18.066,-35.645,-48.340,-187.500
1688815452.132,-50.781,-19.043,-38.574,-38.086,-111.816
1688815452.136,-32.715,-18.066,-31.738,-64.453,-79.590
1688815452.140,11.230,-13.672,-32.227,-71.289,-120.605
1688815452.144,19.043,-15.625,-39.062,-52.246,-53.711
1688815452.148,0.488,-11.719,-42.480,-48.828,-102.539
1688815452.151,-31.250,-10.742,-45.898,-39.062,113.281
1688815452.155,-28.320,-17.090,-44.922,-53.711,357.422
1688815452.159,10.742,-15.625,-40.039,-63.477,-19.043
1688815452.163,10.742,-14.160,-41.016,-41.504,-196.777
1688815452.167,-14.648,-18.066,-44.922,-32.715,-86.914
1688815452.158,-46.875,-16.602,-40.527,-29.297,-3.418
1688815452.162,-60.059,-19.531,-38.086,-52.246,-82.520
1688815452.166,-32.715,-20.996,-40.527,-69.824,-187.012
1688815452.170,-23.438,-18.555,-42.480,-56.641,-152.832
1688815452.174,-38.574,-19.043,-42.480,-59.570,-128.906
1688815452.178,-65.918,-15.625,-37.109,-46.387,-73.242
1688815452.182,-76.660,-15.625,-37.109,-49.316,-35.645
1688815452.185,-49.805,-19.531,-40.527,-62.988,-48.828
1688815452.189,-40.039,-18.066,-42.480,-55.176,-104.004
1688815452.193,-56.152,-15.137,-42.969,-46.387,-123.535
1688815452.197,-86.914,-20.996,-42.969,-34.668,-51.758
1688815452.201,-112.305,-30.273,-43.945,-41.504,207.520
1688815452.198,-93.262,-32.715,-42.969,-62.500,131.836
1688815452.202,-97.656,-29.785,-41.016,-60.059,-186.035
1688815452.206,-113.770,-23.926,-38.574,-53.711,-128.418
1688815452.210,-132.812,-24.902,-42.969,-48.340,-61.523
1688815452.214,-167.969,-31.250,-47.852,-56.641,-72.754
1688815452.218,-157.227,-31.250,-48.340,-75.195,-139.160
1688815452.222,-145.508,-27.832,-49.316,-75.195,-23.438
1688815452.225,-159.668,-25.879,-46.875,-57.129,361.816
1688815452.229,-180.664,-23.438,-43.945,-28.320,264.160
1688815452.233,-181.152,-20.508,-41.992,-38.086,-55.664
1688815452.237,-128.418,-22.461,-43.457,-73.730,-110.840
1688815452.241,-76.172,-26.367,-45.898,-75.195,-79.590
1688815452.244,-62.012,-25.879,-44.434,-70.801,-154.297
1688815452.248,-74.707,-24.414,-44.434,-52.246,-216.309
1688815452.252,-88.867,-20.020,-41.016,-42.969,-28.809
1688815452.256,-60.059,-20.020,-42.969,-68.848,-28.320
1688815452.260,-29.297,-25.879,-46.875,-65.430,-125.488
1688815452.264,-28.809,-26.367,-46.387,-49.316,-104.004
1688815452.268,-42.969,-21.484,-46.387,-35.156,247.559
1688815452.271,-69.336,-20.508,-46.387,-37.109,291.504
1688815452.275,-46.875,-21.973,-41.992,-74.219,-84.961
1688815452.279,-0.488,-19.043,-36.621,-65.918,-77.637
1688815452.283,5.859,-17.578,-39.551,-44.922,-52.734
1688815452.287,-6.836,-20.020,-42.480,-46.875,-126.953
1688815452.290,-27.832,-17.578,-44.922,-47.363,-135.254
1688815452.294,-20.508,-21.484,-45.410,-76.172,-62.012
1688815452.298,7.324,-26.367,-44.434,-81.055,5.859
1688815452.302,9.766,-24.902,-46.387,-62.012,-105.957
1688815452.306,-1.465,-21.973,-45.898,-60.059,-216.309
1688815452.310,-28.809,-23.926,-41.992,-48.828,22.461
1688815452.314,-30.762,-26.855,-43.457,-54.199,249.023
1688815452.317,2.930,-23.438,-44.434,-70.312,8.301
1688815452.321,18.555,-20.508,-39.551,-57.129,-135.742
1688815452.325,5.371,-20.020,-37.598,-46.875,27.832
1688815452.329,-29.297,-22.461,-40.527,-31.250,124.023
1688815452.333,-28.809,-18.555,-38.574,-39.551,-36.621
1688815452.349,4.395,-15.137,-33.691,-53.223,-117.676
1688815452.353,12.207,-19.043,-36.133,-34.668,-124.512
1688815452.357,-3.906,-20.020,-40.527,-23.926,-85.449
1688815452.361,-40.527,-22.461,-40.527,-20.996,12.207
1688815452.365,-47.363,-23.438,-37.109,-36.621,-9.277
1688815452.369,-14.648,-21.973,-34.180,-46.387,207.520
1688815452.373,5.859,-21.484,-36.621,-35.645,291.504
1688815452.376,3.418,-20.508,-40.527,-38.086,-14.648
1688815452.380,-16.602,-22.461,-42.969,-22.461,-21.484
1688815452.384,-20.020,-22.949,-42.480,-13.184,182.129
1688815452.388,13.184,-24.902,-42.480,-32.227,45.898
1688815452.392,28.809,-29.297,-44.434,-32.227,-175.781
1688815452.394,16.113,-27.832,-39.551,-24.414,-105.957
1688815452.398,-13.672,-25.391,-39.551,-14.648,-32.227
1688815452.402,-42.969,-26.855,-38.574,-20.996,-63.965
1688815452.406,-22.461,-25.879,-39.551,-58.594,-174.316
1688815452.410,3.418,-23.438,-41.016,-46.387,-110.352
1688815452.414,-6.348,-25.391,-41.016,-33.203,3.418
1688815452.418,-42.480,-32.715,-45.410,-22.949,18.066
1688815452.421,-68.848,-37.109,-47.852,-20.020,-20.508
1688815452.425,-46.875,-33.691,-39.551,-45.898,26.855
1688815452.429,-20.020,-32.715,-35.645,-48.828,222.656
1688815452.433,-23.926,-33.691,-43.457,-45.898,29.785
1688815452.437,-43.457,-31.250,-43.457,-40.527,-166.992
1688815452.439,-66.895,-30.273,-43.945,-35.156,-70.312
1688815452.443,-45.410,-30.762,-42.969,-57.129,-119.141
1688815452.447,-14.648,-32.227,-41.504,-56.641,-212.891
1688815452.451,-22.949,-33.691,-41.016,-39.551,-187.012
1688815452.455,-41.992,-31.250,-43.457,-25.879,-133.301
1688815452.459,-64.941,-30.273,-38.574,-7.812,20.020
1688815452.463,-52.246,-32.227,-36.133,-30.273,59.570
1688815452.466,-25.879,-31.738,-32.715,-44.922,-177.246
1688815452.470,-31.250,-32.227,-28.809,-32.715,53.711
1688815452.474,-50.781,-35.156,-35.156,-20.020,255.859
1688815452.478,-67.871,-32.715,-37.109,-13.184,-31.738
1688815452.482,-56.152,-34.668,-37.109,-43.945,-117.188
1688815452.484,-24.414,-42.480,-37.109,-48.828,0.488
1688815452.488,-21.484,-41.992,-37.598,-26.855,-19.043
1688815452.492,-38.086,-36.133,-37.109,-27.832,-169.434
1688815452.496,-56.641,-36.133,-37.598,-22.461,-80.078
1688815452.500,-53.711,-36.621,-36.621,-49.805,-69.824
1688815452.504,-21.484,-36.621,-35.156,-61.523,-115.234
1688815452.508,-9.766,-35.645,-43.457,-37.109,-37.598
1688815452.511,-27.832,-30.762,-43.945,-39.551,53.223
1688815452.515,-50.781,-31.738,-44.922,-30.273,255.859
1688815452.519,-28.320,-32.715,-44.922,-22.461,4.883
1688815452.523,11.719,-37.598,-27.832,-35.645,-214.844
1688815452.527,5.859,-41.016,-25.879,-28.320,-14.160
1688815452.528,-9.766,-42.969,-27.832,-26.855,-21.973
1688815452.532,-41.992,-53.711,-24.414,-26.855,-166.504
1688815452.536,-60.059,-60.547,-21.973,-27.832,-146.973
1688815452.540,-29.297,-55.664,-19.043,-49.805,-155.273
1688815452.544,-15.137,-58.594,-13.672,-37.598,-130.859
1688815452.548,-31.738,-62.988,-8.789,-26.367,-94.727
1688815452.552,-54.688,-62.500,-4.395,-1.465,17.578
1688815452.555,-68.848,-66.895,6.836,3.906,286.133
1688815452.559,-46.875,-72.754,12.207,-24.902,208.984
1688815452.563,-19.531,-72.266,12.207,-18.555,-92.773
1688815452.567,-27.344,-70.312,13.184,-20.996,-145.020
1688815452.571,-61.035,-68.848,17.578,-12.695,24.902
1688815452.575,-75.195,-77.148,24.902,-0.488,43.457
1688815452.579,-46.387,-84.473,27.832,-23.926,-128.906
1688815452.583,-21.484,-85.449,28.320,-14.648,-43.457
1688815452.587,-28.320,-87.402,32.227,-1.465,33.691
1688815452.591,-56.152,-83.984,37.598,7.324,-47.852
1688815452.595,-83.008,-80.566,39.551,2.930,-55.176
1688815452.599,-51.270,-83.496,41.016,-20.020,142.578
1688815452.602,-21.484,-84.961,44.434,1.465,254.395
1688815452.606,-25.391,-82.031,42.969,2.441,-67.871
1688815452.610,-43.945,-81.543,38.574,-2.441,-122.070
1688815452.614,-69.336,-85.449,38.086,2.441,-7.812
1688815452.618,-43.457,-84.961,41.016,-19.531,-30.762
1688815452.619,-16.113,-83.984,42.969,-28.320,-145.020
1688815452.623,-18.555,-83.984,41.992,-16.602,-147.461
1688815452.627,-30.273,-83.496,44.922,-0.488,-101.074
1688815452.631,-57.129,-79.102,45.410,0.977,-46.875
1688815452.635,-44.922,-75.684,41.016,-30.762,-116.699
1688815452.639,-13.184,-79.590,39.062,-46.875,-192.383
1688815452.643,-10.742,-84.473,34.180,-28.320,170.410
1688815452.646,-28.320,-81.055,36.133,-24.414,260.254
1688815452.650,-62.500,-78.613,33.691,-31.250,-8.301
1688815452.654,-60.059,-76.660,31.738,-54.199,-125.977
1688815452.658,-39.062,-74.219,33.203,-61.035,-52.734
1688815452.662,-41.504,-75.195,33.691,-49.316,-74.219
1688815452.664,-54.688,-71.289,36.133,-42.480,-243.652
1688815452.668,-88.379,-70.312,31.250,-20.996,-80.078
1688815452.672,-88.867,-69.336,30.273,-39.551,-81.055
1688815452.676,-53.223,-65.430,28.320,-63.477,-236.816
1688815452.680,-45.898,-64.453,22.461,-47.852,-169.434
1688815452.684,-64.941,-65.918,17.090,-55.664,106.445
1688815452.688,-85.938,-62.500,12.207,-51.270,161.621
1688815452.691,-69.336,-48.828,9.766,-63.477,-7.324
1688815452.695,-30.273,-44.434,5.859,-75.684,-109.863
1688815452.699,-15.625,-47.852,7.812,-52.734,11.230
1688815452.703,-27.832,-49.316,6.836,-41.016,167.969
1688815452.707,-64.453,-51.758,0.977,-35.645,-51.270
1688815452.723,-83.984,-50.781,-2.441,-64.941,-135.742
1688815452.727,-53.711,-45.410,-6.348,-82.031,-159.180
1688815452.731,-32.715,-43.945,-8.789,-58.594,-194.336
1688815452.735,-44.922,-48.828,-6.836,-65.918,-205.078
1688815452.739,-80.566,-49.316,-6.836,-67.383,-98.145
1688815452.743,-98.145,-42.480,-8.789,-69.824,10.254
1688815452.747,-74.219,-41.016,-10.742,-87.891,-51.758
1688815452.750,-54.199,-40.039,-10.254,-75.684,-104.980
1688815452.754,-55.664,-34.668,-8.789,-62.500,-73.730
1688815452.758,-84.961,-36.621,-12.207,-41.016,323.730
1688815452.762,-113.281,-40.527,-14.648,-29.297,416.016
1688815452.766,-82.520,-40.527,-21.973,-72.266,-113.281
1688815452.769,-55.664,-39.551,-25.879,-83.984,-265.625
1688815452.773,-63.965,-39.062,-21.484,-70.801,-136.230
1688815452.777,-83.984,-39.062,-22.949,-56.152,-121.582
1688815452.781,-102.539,-36.621,-26.367,-57.129,-92.773
1688815452.785,-74.707,-34.668,-22.949,-76.660,-114.746
1688815452.789,-48.340,-33.691,-26.855,-70.801,-34.668
1688815452.793,-42.969,-32.227,-27.832,-72.754,-18.066
1688815452.796,-57.129,-31.250,-27.344,-72.266,-125.977
1688815452.800,-85.449,-34.180,-33.203,-57.129,17.090
1688815452.804,-59.570,-36.621,-27.344,-73.730,107.910
1688815452.808,-27.832,-34.180,-22.949,-77.637,-91.309
1688815452.812,-31.738,-35.156,-26.367,-64.941,-182.617
1688815452.814,-48.340,-34.668,-23.438,-54.688,-72.754
1688815452.818,-69.824,-27.832,-18.066,-39.551,8.789
1688815452.822,-57.617,-26.367,-20.020,-74.219,-85.938
1688815452.826,-32.715,-29.297,-24.902,-89.844,-78.125
1688815452.830,-22.949,-27.832,-23.926,-64.941,-75.195
1688815452.834,-40.527,-28.809,-22.949,-57.129,-26.855
1688815452.838,-79.102,-33.691,-23.438,-38.086,38.574
1688815452.841,-69.336,-34.668,-23.438,-62.988,-152.832
1688815452.845,-27.832,-35.156,-26.367,-93.750,82.520
1688815452.849,-28.809,-36.621,-27.832,-76.660,284.668
1688815452.853,-47.852,-30.762,-26.855,-63.965,-46.387
1688815452.857,-78.125,-27.832,-23.438,-39.062,-38.574
1688815452.859,-116.699,-28.809,-25.879,-55.176,70.312
1688815452.863,-108.398,-30.762,-27.832,-77.637,-13.184
1688815452.867,-91.309,-34.180,-21.973,-56.152,-214.355
1688815452.871,-116.211,-31.250,-19.531,-58.105,-136.719
1688815452.875,-136.719,-26.367,-18.555,-53.711,57.617
1688815452.879,-118.652,-31.250,-20.020,-61.035,-40.039
1688815452.883,-71.289,-36.621,-21.484,-72.754,-118.652
1688815452.886,-38.574,-31.250,-19.043,-36.621,98.145
1688815452.890,-40.039,-32.227,-22.949,-14.160,172.363
1688815452.894,-55.664,-38.574,-22.461,-13.672,-37.109
1688815452.898,-61.523,-35.156,-20.996,-33.203,-86.426
1688815452.902,-28.320,-36.133,-20.020,-39.551,-57.129
1688815452.904,2.930,-33.691,-14.160,-5.371,-76.172
1688815452.908,-14.160,-29.785,-10.254,-10.254,-179.688
1688815452.912,-56.152,-32.227,-8.789,-15.625,-156.738
1688815452.916,-66.895,-27.832,-6.348,-11.230,-41.504
1688815452.920,-33.203,-20.508,-6.348,-19.531,-127.441
1688815452.924,-8.789,-24.902,-10.742,-20.508,-128.906
1688815452.928,-16.113,-32.715,-13.672,-34.180,-90.332
1688815452.931,-50.781,-29.297,-9.277,-8.301,142.578
1688815452.935,-74.219,-27.832,-12.207,16.113,345.703
1688815452.939,-54.199,-27.832,-14.160,-22.461,-3.906
1688815452.943,-34.668,-26.855,-11.230,-33.691,-129.883
1688815452.947,-38.086,-32.715,-13.184,-18.066,2.441
1688815452.948,-71.777,-33.203,-20.996,-20.996,-65.918
1688815452.952,-98.633,-32.715,-16.602,-20.508,-168.945
1688815452.956,-77.148,-32.715,-9.277,-36.621,-142.578
1688815452.960,-53.223,-30.762,-10.742,-26.367,-111.816
1688815452.964,-47.363,-29.785,-6.836,1.465,-118.652
1688815452.968,-59.082,-29.297,-6.836,-3.418,-49.316
1688815452.972,-83.496,-27.344,-4.395,11.719,197.266
1688815452.975,-67.871,-26.855,-3.418,3.418,280.273
1688815452.979,-39.551,-30.273,-6.836,-11.230,-103.027
1688815452.983,-42.480,-28.809,-5.371,1.953,-296.387
1688815452.987,-60.059,-27.832,-8.301,21.973,-52.734
1688815452.991,-88.867,-32.227,-9.766,32.715,107.422
1688815452.994,-76.172,-34.668,-3.906,17.578,-99.609
1688815452.998,-33.203,-32.227,0.000,27.832,-167.480
1688815453.002,-19.531,-32.227,-4.395,36.621,-61.035
1688815453.006,-24.902,-31.250,-3.418,31.738,-64.941
1688815453.010,-53.223,-28.809,-2.441,47.852,-43.457
1688815453.014,-42.969,-30.762,-6.348,31.250,-18.555
1688815453.018,5.371,-30.273,-2.930,30.273,147.461
1688815453.021,16.113,-27.344,-2.930,43.457,145.508
1688815453.025,-0.977,-21.484,-2.441,62.012,-88.379
1688815453.029,-35.156,-20.020,0.000,82.520,66.406
1688815453.033,-32.227,-22.461,-5.859,59.082,310.059
1688815453.037,5.371,-26.367,-10.254,36.621,78.613
1688815453.054,19.043,-26.855,-7.324,42.480,-229.980
1688815453.058,4.883,-26.855,-9.277,51.758,-165.527
1688815453.062,-34.180,-29.785,-10.254,61.523,-66.406
1688815453.066,-35.645,-29.297,-8.301,66.406,-108.398
1688815453.070,13.672,-21.484,-3.906,53.223,-231.934
1688815453.074,41.016,-16.113,0.000,57.129,7.812
1688815453.078,27.344,-18.555,-8.789,65.430,228.027
1688815453.081,-7.324,-20.020,-11.230,72.266,3.906
1688815453.085,-17.090,-22.461,-9.277,61.523,-142.090
1688815453.089,7.324,-22.461,-14.160,31.250,-27.344
1688815453.093,14.648,-23.438,-15.137,34.180,122.559
1688815453.097,3.906,-23.926,-14.648,38.574,-81.055
1688815453.098,-18.555,-21.973,-11.719,51.270,-133.789
1688815453.102,-34.668,-25.879,-10.742,66.406,55.176
1688815453.106,-0.977,-23.926,-9.277,36.621,-4.395
1688815453.110,20.996,-21.484,-5.859,34.180,-161.621
1688815453.114,-14.160,-25.391,-7.812,44.922,-56.641
1688815453.118,-67.383,-25.879,-4.883,50.293,100.586
1688815453.122,-91.309,-26.855,-0.488,60.059,62.012
1688815453.125,-56.152,-26.855,-0.977,24.902,-124.023
1688815453.129,-18.555,-25.391,-5.371,6.348,-208.496
1688815453.133,-16.602,-31.738,-7.812,19.043,142.090
1688815453.137,-37.109,-30.762,-6.348,34.668,276.367
1688815453.141,-74.707,-27.832,-3.418,48.340,-74.219
1688815453.144,-52.246,-35.156,4.395,21.973,-41.504
1688815453.148,-1.465,-34.180,9.766,33.691,32.227
1688815453.152,2.441,-23.438,0.000,36.621,-77.148
1688815453.156,-23.926,-13.184,-8.789,11.719,-71.289
1688815453.160,-48.340,-11.230,-12.695,0.977,-31.738
1688815453.164,-31.738,-9.277,-20.996,-31.738,76.660
1688815453.168,-2.930,-2.441,-30.762,-25.391,31.250
1688815453.171,0.977,-4.883,-41.992,-26.367,-133.789
1688815453.175,-23.438,-9.277,-47.363,-27.832,-20.508
1688815453.179,-61.523,-0.977,-51.758,-18.066,123.535
1688815453.183,-57.617,3.906,-59.082,-39.551,-111.328
1688815453.187,-26.855,7.324,-67.871,-49.805,-207.520
1688815453.190,-25.879,14.160,-72.754,-53.223,-146.484
1688815453.194,-62.988,18.066,-72.754,-66.406,-121.582
1688815453.198,-98.145,22.461,-78.613,-62.500,-42.969
1688815453.202,-88.867,18.555,-79.590,-70.312,-84.961
1688815453.206,-52.246,17.578,-86.426,-88.867,-124.023
1688815453.210,-40.527,25.391,-92.285,-90.820,-48.340
1688815453.214,-51.270,28.320,-89.355,-92.773,-19.043
1688815453.217,-77.148,31.250,-90.820,-87.891,-72.266
1688815453.221,-68.359,29.785,-94.238,-97.168,131.836
1688815453.225,-25.391,33.203,-97.656,-106.445,208.496
1688815453.229,-14.648,38.086,-101.562,-96.680,-125.000
1688815453.233,-21.973,40.527,-104.492,-90.332,-105.957
1688815453.233,-58.594,44.434,-106.934,-90.820,-20.508
1688815453.237,-61.035,41.504,-108.398,-99.609,-46.875
1688815453.241,-16.602,41.504,-110.840,-108.398,-170.410
1688815453.245,-6.348,39.062,-108.398,-97.656,-150.391
1688815453.249,-14.160,39.062,-104.492,-76.660,-49.805
1688815453.253,-29.785,43.945,-98.633,-41.504,-6.836
1688815453.257,-42.480,43.945,-94.727,-49.805,40.039
1688815453.260,-4.883,39.551,-90.332,-59.082,87.402
1688815453.264,26.855,33.203,-83.496,-32.227,221.680
1688815453.268,10.254,28.809,-83.984,-32.715,17.578
1688815453.272,-18.066,28.320,-81.543,-32.715,-124.512
1688815453.276,-33.203,25.391,-75.684,-24.414,-37.598
1688815453.278,-7.324,21.973,-68.848,-43.457,-109.375
1688815453.282,8.789,20.020,-61.523,-28.809,-174.316
1688815453.286,6.348,16.113,-58.105,-4.395,-143.555
1688815453.290,-11.719,17.090,-57.129,20.996,-107.422
1688815453.294,-31.738,15.625,-56.152,29.297,-92.285
1688815453.298,-2.441,8.789,-51.758,-5.859,-88.867
1688815453.302,27.832,7.324,-48.828,0.977,-146.484
1688815453.305,32.227,12.695,-42.480,19.043,150.391
1688815453.309,16.602,13.184,-36.621,33.203,376.465
1688815453.313,-17.090,9.766,-37.109,37.109,-36.133
1688815453.317,-4.883,7.324,-32.227,9.277,-205.566
1688815453.321,20.508,1.465,-31.250,13.184,-152.344
1688815453.324,8.301,1.465,-30.273,14.648,-182.129
1688815453.328,-13.672,2.441,-22.949,21.973,-224.121
1688815453.332,-42.480,-0.488,-22.461,35.645,-49.805
1688815453.336,-22.949,-4.395,-22.461,8.789,42.969
1688815453.340,15.625,-6.348,-24.414,11.719,-187.012
1688815453.344,17.578,-5.371,-22.949,33.691,-181.152
1688815453.348,7.812,-6.348,-16.113,51.270,28.809
1688815453.351,-22.949,-7.812,-16.602,63.477,206.543
1688815453.355,-9.766,-5.859,-9.766,45.410,-53.711
1688815453.359,36.621,-2.930,-6.836,37.109,-226.074
1688815453.363,45.410,-5.371,-12.207,51.270,-37.598
1688815453.367,23.926,-5.859,-5.859,59.082,18.555
1688815453.368,-9.766,-7.812,-3.906,53.711,-89.355
1688815453.372,-10.742,-8.301,-11.719,31.250,-147.461
1688815453.376,20.508,-5.371,-7.324,29.785,-82.031
1688815453.380,23.926,-8.301,-3.906,44.434,-75.684
1688815453.384,-1.465,-10.254,-10.254,34.180,-130.371
1688815453.388,-25.879,-11.719,-8.789,32.715,-38.574
1688815453.392,-24.414,-10.742,-5.371,24.414,104.980
1688815453.395,4.395,-16.602,-4.395,16.602,95.703
1688815453.399,31.738,-24.414,-1.465,50.293,-73.242
1688815453.403,15.137,-13.672,-6.836,37.598,-65.918
1688815453.407,-44.922,-10.254,-15.137,-1.953,86.914
1688815453.411,-51.758,-11.230,-13.184,-12.207,48.340
1688815453.415,-5.859,-12.207,-11.230,-20.996,-55.176
1688815453.419,12.695,-16.113,-14.648,-14.160,4.395
1688815453.423,-5.371,-16.113,-20.996,-21.973,20.020
1688815453.427,-44.434,-10.742,-15.625,-18.555,-41.504
1688815453.431,-54.688,-8.301,-12.695,-23.926,-136.719
1688815453.435,-25.879,-20.020,-19.531,-48.340,30.273
1688815453.439,-7.324,-18.066,-21.484,-29.297,207.031
1688815453.442,-10.254,-12.207,-19.531,-3.906,-107.422
1688815453.446,-37.109,-15.137,-20.020,3.418,-182.617
1688815453.450,-51.758,-12.695,-21.484,-6.836,36.133
1688815453.454,-17.578,-13.672,-22.949,-33.691,-23.926
1688815453.458,7.324,-15.137,-26.367,-21.973,-163.086
1688815453.462,-0.977,-13.672,-25.879,-11.230,-104.980
1688815453.466,-26.367,-18.555,-21.973,-16.602,-61.035
1688815453.470,-46.875,-21.973,-20.508,-16.113,-45.410
1688815453.474,-30.273,-19.043,-18.555,-30.273,-131.348
1688815453.478,-7.812,-17.578,-14.160,-23.438,-144.043
1688815453.482,-14.160,-15.137,-12.695,-15.137,134.277
1688815453.486,-37.109,-14.648,-19.531,-14.648,151.367
1688815453.489,-52.734,-15.625,-22.461,-12.695,-158.691
1688815453.493,-30.762,-15.625,-18.555,-37.598,-121.582
1688815453.497,-2.930,-14.160,-23.438,-49.805,32.227
1688815453.501,-4.883,-17.090,-24.902,-41.504,-93.750
1688815453.505,-27.832,-21.973,-20.996,-34.180,-182.617
1688815453.518,-49.805,-20.508,-27.344,-17.578,-46.387
1688815453.522,-28.320,-20.996,-31.250,-30.273,20.020
1688815453.526,6.348,-23.438,-26.855,-43.945,-123.535
1688815453.530,19.043,-20.508,-23.438,-24.902,-190.918
1688815453.534,0.000,-26.367,-22.461,-27.832,-10.742
1688815453.538,-22.461,-27.344,-22.949,-25.879,330.566
1688815453.542,1.465,-23.438,-22.461,-49.316,167.969
1688815453.545,34.180,-25.391,-21.484,-67.383,-183.105
1688815453.549,26.855,-25.391,-21.484,-47.363,-37.598
1688815453.553,5.859,-21.484,-20.508,-44.922,108.398
1688815453.557,-33.691,-22.461,-23.926,-39.062,-39.062
1688815453.561,-49.316,-26.367,-31.738,-75.195,-171.875
1688815453.564,-21.484,-29.785,-35.156,-107.910,-83.008
1688815453.568,-11.719,-33.691,-33.203,-92.773,6.348
1688815453.572,-12.695,-33.691,-26.367,-70.312,-107.910
1688815453.576,-36.133,-29.297,-24.414,-43.457,-165.527
1688815453.580,-55.176,-25.391,-34.668,-68.848,-171.875
1688815453.584,-23.438,-21.484,-39.551,-85.938,-83.496
1688815453.588,-3.906,-21.973,-38.574,-57.129,-31.738
1688815453.591,-20.996,-26.367,-36.133,-57.129,-37.109
1688815453.595,-52.734,-28.320,-35.645,-35.645,193.359
1688815453.599,-56.641,-25.879,-34.180,-31.738,87.402
1688815453.603,-25.879,-19.531,-30.762,-55.176,-221.191
1688815453.607,-10.254,-20.996,-32.227,-43.457,-135.254
1688815453.609,-19.531,-28.320,-34.180,-30.762,153.320
1688815453.613,-44.922,-30.273,-32.715,-16.113,78.125
1688815453.617,-58.594,-29.297,-33.203,-24.902,-231.934
1688815453.621,-30.273,-28.320,-29.785,-38.086,-187.012
1688815453.625,-16.602,-31.738,-28.320,-9.277,90.332
1688815453.629,-21.484,-28.320,-24.902,4.883,14.648
1688815453.633,-39.062,-26.367,-23.926,4.883,-91.309
1688815453.636,-57.129,-30.273,-25.879,2.930,9.766
1688815453.640,-31.250,-35.156,-25.879,-14.648,-11.230
1688815453.644,-1.465,-32.227,-26.367,-5.371,-140.625
1688815453.648,-8.789,-30.762,-29.785,11.719,-156.250
1688815453.652,-45.410,-31.250,-28.809,15.137,43.457
1688815453.654,-75.195,-26.855,-25.879,13.672,68.359
1688815453.658,-61.523,-25.879,-25.391,-12.695,-182.617
1688815453.662,-41.504,-30.273,-24.414,-24.414,-182.129
1688815453.666,-42.480,-30.273,-22.949,-17.090,-86.914
1688815453.670,-62.012,-31.250,-20.508,-14.160,-116.699
1688815453.674,-89.844,-37.598,-22.949,-22.461,-6.836
1688815453.678,-75.195,-39.551,-27.344,-45.410,34.180
1688815453.681,-38.574,-42.480,-29.297,-32.227,137.695
1688815453.685,-31.738,-37.109,-28.809,-17.090,171.875
1688815453.689,-46.875,-30.273,-24.414,-16.602,-17.578
1688815453.693,-68.848,-28.809,-26.855,-2.930,-28.320
1688815453.697,-52.246,-30.762,-31.738,-21.484,217.773
1688815453.698,-13.672,-29.785,-32.227,-32.715,143.066
1688815453.702,-1.953,-22.461,-24.414,-15.625,-187.500
1688815453.706,-19.531,-24.902,-24.414,1.953,-112.305
1688815453.710,-50.781,-31.738,-25.879,8.301,-25.391
1688815453.714,-43.945,-30.762,-25.391,-22.461,-73.730
1688815453.718,-11.719,-28.320,-28.809,-38.086,-65.918
1688815453.722,-8.301,-32.227,-29.297,-16.602,190.430
1688815453.725,-30.762,-32.715,-27.832,-5.371,214.844
1688815453.729,-56.152,-30.273,-30.273,-5.859,-14.160
1688815453.733,-56.152,-30.762,-28.809,-30.762,-105.957
1688815453.737,-30.762,-31.250,-29.785,-34.668,17.578
1688815453.741,-15.137,-29.297,-33.691,-20.508,50.781
1688815453.745,-34.668,-28.809,-28.320,-22.461,-151.367
1688815453.749,-76.172,-29.297,-26.367,-14.160,-80.566
1688815453.753,-85.449,-28.809,-28.809,-29.785,53.223
1688815453.757,-55.176,-30.762,-26.367,-49.316,-50.781
1688815453.761,-43.457,-33.691,-25.391,-24.902,-168.457
1688815453.765,-60.059,-33.203,-26.367,-31.738,-70.801
1688815453.769,-102.539,-31.250,-27.344,-29.785,205.566
1688815453.772,-112.305,-31.250,-25.391,-30.273,152.344
1688815453.776,-85.449,-36.133,-27.344,-55.176,-140.625
1688815453.780,-78.125,-34.668,-29.297,-40.039,-110.352
1688815453.784,-75.195,-25.391,-27.832,-22.461,-90.820
1688815453.788,-98.633,-26.367,-32.715,-5.859,-148.438
1688815453.789,-116.699,-25.879,-30.273,-21.973,-188.965
1688815453.793,-88.867,-25.391,-29.297,-51.758,-104.492
1688815453.797,-69.336,-24.902,-32.715,-39.551,27.344
1688815453.801,-78.613,-23.926,-32.227,-25.879,-63.965
1688815453.805,-110.840,-28.320,-32.227,-10.254,-82.520
1688815453.809,-128.906,-26.855,-31.738,-12.207,102.539
1688815453.813,-95.703,-21.484,-27.832,-29.785,259.766
1688815453.816,-62.012,-17.578,-27.344,-16.602,135.254
1688815453.820,-71.777,-21.973,-26.367,-15.625,-133.789
1688815453.824,-104.492,-28.809,-24.414,-11.719,-114.258
1688815453.828,-129.395,-29.785,-26.855,-7.812,-5.859
1688815453.832,-110.352,-29.297,-22.949,-26.855,-98.145
1688815453.864,-80.078,-28.809,-20.996,-20.508,-213.379
1688815453.868,-80.078,-29.785,-30.273,-7.812,-173.828
1688815453.872,-100.098,-25.879,-37.598,-8.301,-90.820
1688815453.876,-130.859,-24.414,-32.715,-8.301,-76.172
1688815453.880,-119.141,-28.809,-28.809,-29.785,-115.234
1688815453.884,-81.055,-28.320,-28.809,-29.785,-62.988
1688815453.888,-83.008,-25.391,-26.367,-14.160,-5.371
1688815453.891,-107.422,-30.762,-24.414,-8.301,28.809
1688815453.895,-134.277,-32.715,-27.344,-4.883,37.109
1688815453.899,-123.047,-27.832,-29.297,-15.625,200.684
1688815453.903,-92.285,-27.344,-26.855,-16.113,278.320
1688815453.907,-95.215,-28.320,-25.879,-12.207,-61.035
1688815453.894,-117.188,-29.785,-24.902,-7.812,-111.816
1688815453.898,-146.484,-31.250,-21.973,-11.719,-37.109
1688815453.902,-139.160,-31.250,-17.578,-35.645,-114.746
1688815453.906,-106.445,-31.250,-20.508,-37.109,-233.887
1688815453.910,-90.820,-35.156,-23.438,-23.926,-150.879
1688815453.914,-102.051,-34.668,-20.508,-31.738,60.059
1688815453.918,-134.277,-29.297,-24.414,-23.438,56.641
1688815453.921,-135.742,-27.832,-24.902,-41.504,-113.770
1688815453.925,-101.074,-28.320,-21.484,-45.410,-115.723
1688815453.929,-82.031,-31.738,-27.344,-18.066,-44.922
1688815453.933,-87.891,-34.668,-30.762,-30.273,-126.465
1688815453.937,-116.699,-41.016,-29.785,-35.156,-125.000
1688815453.939,-117.676,-41.016,-27.344,-40.527,73.730
1688815453.943,-80.078,-36.621,-27.344,-41.992,249.023
1688815453.947,-58.105,-39.062,-28.809,-16.113,34.668
1688815453.951,-58.105,-40.527,-26.855,-7.812,-112.305
1688815453.955,-77.148,-34.180,-22.949,3.418,-117.188
1688815453.959,-92.773,-31.250,-16.602,6.836,21.484
1688815453.963,-69.824,-32.227,-19.531,-20.020,-4.395
1688815453.966,-55.176,-32.715,-30.273,-15.137,-130.859
1688815453.970,-61.523,-33.203,-31.738,0.977,67.383
1688815453.974,-77.148,-26.855,-30.762,5.371,41.504
1688815453.978,-90.820,-24.902,-31.250,-6.348,-103.027
1688815453.982,-60.059,-23.926,-29.785,-20.996,-141.113
1688815453.983,-31.250,-23.438,-28.320,-7.324,130.371
1688815453.987,-36.133,-25.879,-27.832,-5.859,163.574
1688815453.991,-57.617,-22.949,-27.832,1.953,-142.090
1688815453.995,-76.172,-26.855,-29.297,-3.418,-69.336
1688815453.999,-51.270,-26.367,-30.762,-42.480,-42.969
1688815454.003,-28.809,-26.367,-31.738,-41.016,-88.379
1688815454.007,-33.691,-27.832,-30.273,-20.508,-41.504
1688815454.010,-56.152,-24.902,-31.250,-10.742,58.105
1688815454.014,-74.707,-29.297,-33.203,-3.418,161.621
1688815454.018,-42.969,-28.809,-32.227,-29.297,-51.270
1688815454.022,-20.508,-32.227,-31.738,-42.969,-180.176
1688815454.026,-20.508,-35.156,-25.879,-35.156,-126.953
1688815454.043,-31.738,-35.156,-27.832,-36.133,-78.613
1688815454.047,-61.523,-36.621,-28.320,-32.715,-93.750
1688815454.051,-45.898,-34.180,-25.391,-54.688,-144.531
1688815454.055,-4.883,-30.273,-23.926,-55.176,-92.773
1688815454.059,2.930,-28.809,-25.391,-45.410,-70.312
1688815454.063,-21.484,-30.762,-31.250,-40.527,-78.613
1688815454.067,-62.012,-29.297,-32.715,-23.438,-19.043
1688815454.070,-45.898,-30.273,-34.668,-45.898,156.250
1688815454.074,-6.348,-30.762,-33.203,-61.035,191.406
1688815454.078,-5.859,-28.320,-30.273,-42.969,-103.027
1688815454.082,-21.973,-24.902,-29.297,-26.855,-133.301
1688815454.086,-57.129,-28.809,-28.320,-32.715,67.383
1688815454.074,-50.781,-35.156,-31.250,-68.359,-6.348
1688815454.078,-5.859,-29.297,-30.762,-72.754,-204.102
1688815454.082,17.090,-24.902,-25.879,-33.203,-188.477
1688815454.086,0.488,-30.273,-22.461,-16.113,-60.059
1688815454.090,-55.664,-43.457,-20.020,-22.461,50.781
1688815454.094,-58.594,-43.457,-20.020,-47.363,19.043
1688815454.098,-12.207,-36.621,-21.484,-54.688,47.852
1688815454.101,0.000,-38.574,-20.020,-43.945,45.898
1688815454.105,-13.184,-35.156,-21.484,-41.504,-156.738
1688815454.109,-43.457,-32.227,-21.484,-17.578,-133.789
1688815454.113,-45.410,-37.109,-25.391,-20.020,86.914
1688815454.117,-14.160,-41.504,-31.250,-40.527,183.105
1688815454.119,1.465,-36.621,-27.344,-32.715,-61.035
1688815454.123,-1.953,-34.668,-26.855,-28.320,-113.281
1688815454.127,-30.762,-35.156,-29.297,-14.160,19.043
1688815454.131,-36.621,-33.691,-29.785,-22.949,5.859
1688815454.135,4.395,-30.273,-28.320,-53.223,-133.301
1688815454.139,23.926,-27.832,-24.414,-36.621,-110.352
1688815454.143,13.672,-26.367,-24.414,-29.785,198.730
1688815454.146,-14.160,-25.879,-32.227,-28.809,215.332
1688815454.150,-33.691,-26.855,-39.062,-45.898,13.672
1688815454.154,-9.766,-27.832,-36.133,-78.613,-130.371
1688815454.158,8.301,-27.832,-27.832,-45.898,23.926
1688815454.162,-0.977,-25.879,-25.391,-13.672,67.383
1688815454.165,-35.645,-25.391,-29.297,-19.531,-179.199
1688815454.169,-66.406,-25.391,-24.414,-32.715,-34.180
1688815454.173,-51.270,-29.785,-21.484,-61.035,-29.785
1688815454.177,-42.969,-29.297,-24.414,-47.852,-165.039
1688815454.181,-56.152,-30.273,-25.879,-38.574,-253.906
1688815454.185,-80.566,-31.250,-21.973,-42.480,-20.996
1688815454.189,-103.516,-29.785,-23.926,-38.574,182.617
1688815454.192,-75.195,-31.250,-30.273,-63.965,-118.652
1688815454.196,-28.320,-29.785,-28.320,-63.965,-188.965
1688815454.200,-24.414,-26.855,-29.297,-53.223,-20.020
1688815454.204,-40.527,-31.738,-33.203,-56.152,-54.688
1688815454.208,-41.016,-29.785,-33.691,-56.152,-204.590
1688815454.224,-22.949,-25.879,-40.527,-53.223,-228.516
1688815454.228,0.488,-29.297,-46.387,-41.992,-165.039
1688815454.232,3.418,-29.785,-45.410,-49.316,-154.297
1688815454.236,-16.113,-26.855,-43.457,-54.688,-201.172
1688815454.240,-40.039,-24.902,-36.133,-51.758,-156.250
1688815454.244,-41.992,-26.855,-32.715,-61.035,131.836
1688815454.248,-38.574,-27.344,-31.250,-52.734,256.348
1688815454.251,-46.875,-29.785,-30.273,-43.945,-59.570
1688815454.255,-66.406,-33.203,-30.273,-45.410,-123.535
1688815454.259,-80.566,-29.785,-26.367,-36.133,179.688
1688815454.263,-64.941,-26.855,-24.902,-50.781,230.469
1688815454.267,-38.574,-23.926,-26.855,-60.547,-89.844
1688815454.268,-28.320,-22.461,-31.250,-41.016,-104.004
1688815454.272,-43.457,-25.391,-34.668,-33.203,-8.301
1688815454.276,-62.012,-24.414,-34.668,-41.504,-137.207
1688815454.280,-63.965,-26.855,-34.180,-56.641,-209.961
1688815454.284,-43.457,-29.785,-33.203,-54.199,-128.418
1688815454.288,-28.809,-28.809,-37.598,-45.410,20.508
1688815454.292,-45.410,-35.645,-41.504,-41.992,6.348
1688815454.295,-62.988,-33.691,-33.203,-40.527,-163.086
1688815454.299,-49.316,-25.391,-24.414,-43.945,-75.684
1688815454.303,-31.738,-26.367,-24.414,-37.598,81.543
1688815454.307,-31.250,-25.879,-28.809,-22.949,-71.289
1688815454.311,-44.922,-20.996,-27.832,-16.602,-121.582
1688815454.313,-75.684,-21.973,-25.391,-25.879,-94.238
1688815454.317,-77.148,-25.879,-26.367,-40.039,-109.375
1688815454.321,-56.641,-30.762,-25.391,-55.664,-107.910
1688815454.325,-46.875,-31.250,-27.832,-48.340,-91.797
1688815454.329,-50.781,-27.832,-30.273,-41.992,-23.926
1688815454.333,-69.336,-26.855,-29.297,-62.012,-9.277
1688815454.337,-73.730,-26.855,-29.297,-78.125,-51.270
1688815454.340,-51.270,-30.273,-34.180,-80.566,-104.492
1688815454.344,-31.738,-25.391,-35.156,-61.035,108.887
1688815454.348,-38.574,-22.461,-27.832,-44.434,276.367
1688815454.352,-57.129,-27.832,-29.785,-49.316,-29.297
1688815454.356,-69.336,-26.367,-37.109,-59.082,-131.348
1688815454.358,-56.641,-24.414,-39.062,-62.500,-143.066
1688815454.362,-33.691,-22.461,-33.203,-54.199,-144.531
1688815454.366,-35.645,-23.926,-32.227,-48.340,-141.602
1688815454.370,-51.270,-24.902,-32.715,-44.434,-82.520
1688815454.374,-56.641,-23.438,-25.391,-35.156,89.844
1688815454.378,-53.711,-31.250,-26.367,-43.457,-55.176
1688815454.382,-44.922,-36.133,-25.391,-43.945,-159.180
1688815454.385,-49.316,-40.039,-26.367,-24.414,70.801
1688815454.389,-72.266,-42.969,-35.156,-18.555,165.039
1688815454.393,-77.148,-36.621,-35.156,-33.203,-34.180
1688815454.397,-52.734,-32.715,-30.762,-50.293,-119.629
1688815454.401,-28.809,-27.344,-29.785,-49.316,-104.004
1688815454.404,-26.367,-25.391,-31.738,-41.504,-84.961
1688815454.408,-38.574,-29.785,-33.203,-35.156,-84.961
1688815454.412,-51.758,-33.691,-35.645,-36.133,-56.641
1688815454.416,-46.387,-32.715,-37.109,-46.387,-24.414
1688815454.420,-27.832,-34.668,-37.598,-40.527,-35.645
1688815454.424,-22.949,-37.109,-38.086,-24.902,62.500
1688815454.428,-29.297,-35.156,-30.762,-22.461,85.938
1688815454.431,-43.457,-33.203,-27.832,-31.250,309.570
1688815454.435,-36.133,-31.738,-28.809,-45.410,414.551
1688815454.439,-10.742,-31.738,-30.762,-36.133,-29.785
1688815454.443,-10.254,-31.250,-32.227,-15.625,-125.488
1688815454.447,-15.625,-34.180,-30.273,-13.184,0.977
1688815454.449,-19.043,-34.180,-31.738,-16.113,-65.430
1688815454.453,-13.184,-30.273,-33.203,-24.414,-124.512
1688815454.457,2.441,-29.785,-32.715,-17.578,-85.449
1688815454.461,6.836,-26.367,-36.133,1.953,-36.621
1688815454.465,-8.301,-26.367,-37.109,7.324,-106.445
1688815454.469,-28.809,-28.809,-41.016,-5.859,-123.047
1688815454.473,-41.016,-26.367,-43.457,-25.879,22.949
1688815454.476,-28.809,-25.879,-40.527,-27.832,273.926
1688815454.480,-21.973,-23.926,-38.574,-22.461,83.008
1688815454.484,-36.133,-26.367,-40.039,-21.973,-150.879
1688815454.488,-60.059,-34.668,-44.434,-12.695,-5.859
1688815454.492,-68.359,-35.645,-39.551,-26.855,18.066
1688815454.508,-45.410,-38.574,-39.551,-49.805,-138.672
1688815454.512,-30.762,-34.180,-42.480,-40.527,-156.250
1688815454.516,-41.016,-26.367,-41.016,-37.598,-140.625
1688815454.520,-64.941,-34.668,-40.527,-41.504,-83.496
1688815454.524,-71.777,-37.109,-40.527,-47.852,-93.262
1688815454.528,-55.664,-27.344,-41.016,-51.270,-88.379
1688815454.532,-45.410,-27.344,-38.574,-32.227,210.938
1688815454.535,-47.852,-31.738,-39.551,-24.414,131.836
1688815454.539,-61.035,-28.809,-41.504,-30.273,-120.117
1688815454.543,-68.359,-30.762,-41.504,-38.574,-95.703
1688815454.547,-54.199,-35.645,-40.527,-41.016,147.949
1688815454.551,-27.832,-32.715,-37.598,-27.832,158.691
1688815454.538,-36.621,-34.180,-38.086,-24.902,-123.047
1688815454.542,-69.824,-32.227,-36.621,-30.273,-49.805
1688815454.546,-81.543,-25.879,-36.133,-36.133,-14.160
1688815454.550,-62.500,-35.156,-37.109,-33.203,-186.523
1688815454.554,-29.785,-36.133,-33.203,-22.949,-208.008
1688815454.558,-23.926,-32.227,-31.738,-20.020,61.035
1688815454.562,-41.992,-35.645,-33.691,-20.508,144.531
1688815454.565,-63.965,-31.250,-35.645,-16.113,-62.988
1688815454.569,-50.781,-31.738,-35.645,-37.598,-172.852
1688815454.573,-29.785,-33.691,-33.691,-53.223,-72.754
1688815454.577,-28.320,-31.738,-36.621,-33.203,59.570
1688815454.581,-34.180,-34.180,-34.180,-22.949,-122.559
1688815454.599,-55.664,-34.668,-33.691,-24.902,-86.426
1688815454.603,-44.922,-32.715,-36.621,-38.086,51.270
1688815454.607,-9.277,-33.691,-41.016,-46.875,-42.969
1688815454.611,-16.602,-31.250,-43.457,-30.762,-180.664
1688815454.615,-43.945,-35.645,-39.551,-24.902,-161.133
1688815454.619,-70.801,-38.086,-40.039,-10.254,20.020
1688815454.623,-59.570,-30.762,-42.480,-29.297,-40.039
1688815454.626,-17.090,-30.762,-39.551,-54.199,-175.781
1688815454.630,4.883,-26.367,-33.203,-38.574,-110.840
1688815454.634,-7.812,-24.414,-31.738,-36.133,167.969
1688815454.638,-34.668,-28.809,-35.156,-31.738,183.594
1688815454.642,-24.902,-29.297,-34.180,-42.969,-124.023
1688815454.645,1.953,-32.715,-30.762,-55.664,-138.184
1688815454.649,7.324,-35.156,-29.297,-30.273,-138.184
1688815454.653,-3.418,-34.180,-26.855,-22.461,-99.609
1688815454.657,-27.832,-39.062,-29.297,-48.828,-51.270
1688815454.661,-37.598,-37.109,-33.203,-51.758,-70.801
1688815454.665,-8.789,-31.738,-37.109,-45.898,91.309
1688815454.669,5.859,-29.297,-36.133,-41.992,5.371
1688815454.672,0.488,-31.250,-33.691,-36.621,-175.293
1688815454.676,-2.441,-35.156,-31.250,-30.273,-23.926
1688815454.680,-5.859,-34.668,-30.762,-33.203,94.727
1688815454.684,14.648,-27.344,-28.320,-44.434,-63.477
1688815454.688,33.203,-25.391,-32.227,-36.133,-145.508
1688815454.688,27.344,-27.832,-39.062,-27.832,-76.660
1688815454.692,11.719,-27.344,-38.086,-32.227,-32.715
1688815454.696,0.977,-28.320,-38.086,-53.711,-67.871
1688815454.700,21.484,-29.785,-36.133,-61.035,-93.262
1688815454.704,30.762,-28.320,-35.645,-49.316,-44.434
1688815454.708,17.578,-23.438,-33.691,-46.387,39.551
1688815454.712,8.789,-22.461,-28.809,-43.945,57.617
1688815454.715,-4.395,-23.926,-31.250,-49.316,26.855
1688815454.719,2.441,-23.926,-35.156,-45.898,255.371
1688815454.723,16.602,-23.926,-34.668,-35.645,439.941
1688815454.727,20.020,-26.855,-32.715,-38.086,22.949
1688815454.731,7.812,-28.320,-33.691,-37.598,-182.617
1688815454.733,-8.301,-28.809,-32.715,-41.016,-67.871
1688815454.737,5.859,-23.926,-30.273,-54.688,-110.840
1688815454.741,27.832,-24.414,-26.855,-42.969,-168.945
1688815454.745,20.996,-28.320,-26.367,-35.156,-104.492
1688815454.749,8.789,-28.809,-30.762,-31.250,-51.758
1688815454.753,-2.930,-28.320,-32.715,-25.879,-12.695
1688815454.757,8.301,-23.926,-34.180,-46.875,-75.684
1688815454.760,30.762,-27.832,-32.227,-48.828,-29.785
1688815454.764,27.832,-28.320,-32.227,-29.297,271.484
1688815454.768,12.695,-26.367,-36.621,-32.227,82.031
1688815454.772,-8.789,-27.832,-36.133,-43.945,-209.961
1688815454.776,-13.184,-26.367,-35.645,-56.641,-150.879
1688815454.780,14.160,-29.297,-36.621,-56.152,-134.766
1688815454.784,22.949,-31.738,-35.645,-32.227,-154.785
1688815454.788,0.000,-24.414,-34.180,-31.738,-174.316
1688815454.792,-13.184,-20.996,-37.109,-51.758,-139.160
1688815454.796,-4.883,-23.438,-40.039,-60.059,-54.688
1688815454.800,18.555,-23.438,-38.086,-49.316,0.977
1688815454.804,27.344,-22.461,-33.691,-44.434,36.133
1688815454.807,11.230,-23.438,-32.715,-50.293,196.289
1688815454.811,-4.883,-23.438,-40.527,-47.363,237.793
1688815454.815,7.324,-19.531,-42.969,-38.086,-33.691
1688815454.819,35.156,-24.414,-29.297,-23.926,-88.379
1688815454.823,30.273,-32.715,-20.020,-21.484,128.418
1688815454.823,3.906,-33.203,-20.508,-28.320,56.641
1688815454.827,-16.113,-35.156,-17.090,-34.180,-194.336
1688815454.831,-25.879,-44.922,-16.602,-44.434,-87.402
1688815454.835,-17.090,-50.293,-9.277,-42.480,-36.621
1688815454.839,-10.254,-53.223,-0.488,-25.879,-127.930
1688815454.843,-17.090,-58.594,-0.488,-19.531,-180.176
1688815454.847,-41.016,-62.012,1.953,-19.043,37.598
1688815454.850,-54.199,-67.871,2.930,-28.809,144.531
1688815454.854,-32.715,-71.289,7.324,-44.434,-159.180
1688815454.858,-14.160,-69.824,10.254,-25.391,-221.680
1688815454.862,-20.996,-79.102,8.789,-0.488,0.977
1688815454.866,-37.109,-83.008,14.648,-12.695,87.891
1688815454.870,-47.852,-79.102,22.949,-32.227,-63.477
1688815454.874,-38.086,-87.402,28.809,-29.297,-123.535
1688815454.878,-20.020,-88.867,28.320,-12.207,-79.590
1688815454.882,-18.555,-86.914,28.809,-14.160,-61.523
1688815454.886,-28.320,-85.938,37.109,-28.809,-145.508
1688815454.890,-41.016,-88.379,39.062,-19.531,-154.297
1688815454.894,-26.367,-90.332,36.621,-6.836,136.719
1688815454.897,1.465,-89.844,37.109,8.789,165.527
1688815454.901,-3.906,-92.773,42.969,6.348,-105.957
1688815454.905,-28.809,-91.797,41.992,-0.977,-65.918
1688815454.909,-43.457,-89.844,39.551,5.371,29.297
1688815454.913,-40.039,-90.820,45.410,-2.441,-96.191
1688815454.915,-23.926,-93.262,47.363,1.465,-158.691
1688815454.919,-30.762,-92.773,49.316,16.602,-86.914
1688815454.923,-49.316,-87.891,51.270,18.066,-30.273
1688815454.927,-62.012,-86.426,50.293,25.879,-25.391
1688815454.931,-57.617,-79.102,46.387,9.766,-133.789
1688815454.935,-47.852,-84.961,39.551,-10.254,-14.648
1688815454.939,-49.805,-89.844,31.250,2.441,338.867
1688815454.942,-63.965,-82.520,24.902,-2.441,150.879
1688815454.946,-77.148,-77.637,33.203,-5.859,-213.867
1688815454.950,-74.219,-73.242,26.855,-25.391,-128.418
1688815454.954,-56.152,-70.801,17.090,-39.062,-66.895
1688815454.958,-46.875,-67.871,17.578,-36.133,-179.199
1688815454.973,-57.617,-66.895,11.719,-40.527,-182.617
1688815454.977,-65.430,-61.035,14.648,-28.809,-87.402
1688815454.981,-59.570,-54.199,20.508,-22.949,-97.168
1688815454.985,-45.410,-54.688,19.531,-37.109,-161.133
1688815454.989,-34.668,-49.805,16.113,-43.457,-88.379
1688815454.993,-29.785,-44.434,15.137,-31.250,87.402
1688815454.997,-44.922,-47.363,13.672,-32.715,125.000
1688815455.000,-53.711,-49.316,9.277,-51.758,32.715
1688815455.004,-30.273,-46.387,7.324,-65.918,-89.355
1688815455.008,-9.277,-44.434,6.836,-45.410,160.156
1688815455.012,-12.207,-43.945,6.348,-41.504,175.781
1688815455.016,-31.250,-42.480,5.371,-47.363,-205.078
1688815455.019,-27.832,-38.574,4.395,-44.922,-166.016
1688815455.023,-4.395,-41.992,2.441,-45.410,-176.270
1688815455.027,9.277,-45.898,0.488,-31.250,-218.750
1688815455.031,-0.977,-41.992,2.441,-10.742,-206.055
1688815455.035,-35.156,-41.992,2.441,1.953,-145.996
1688815455.039,-45.898,-44.434,3.418,5.371,-34.180
1688815455.043,-20.020,-40.039,4.883,13.672,-53.223
1688815455.046,2.441,-31.738,6.348,43.945,-102.539
1688815455.050,3.906,-33.691,6.348,53.223,-19.531
1688815455.054,-18.555,-39.551,0.977,36.133,245.117
1688815455.058,-32.715,-33.203,-1.465,23.926,85.938
1688815455.062,-17.090,-35.156,-0.977,30.762,-150.879
1688815455.064,-3.418,-39.551,-0.488,44.434,-137.695
1688815455.068,-7.812,-38.574,-0.488,47.363,-93.262
1688815455.072,-26.367,-41.992,-2.930,61.523,-52.734
1688815455.076,-38.574,-39.551,-3.418,46.875,-45.410
1688815455.080,-17.090,-36.621,-1.465,17.578,8.789
1688815455.084,2.441,-32.715,-0.488,38.574,61.035
1688815455.088,-0.488,-32.227,-4.395,60.547,48.340
1688815455.091,-7.812,-33.691,-0.977,75.684,-77.148
1688815455.095,-25.391,-32.715,3.418,81.055,80.078
1688815455.099,-19.043,-32.227,-2.930,79.590,445.312
1688815455.103,4.883,-31.250,-1.953,83.496,170.410
1688815455.107,13.184,-33.691,6.836,91.309,-148.438
1688815455.109,-1.953,-39.551,6.348,90.332,-133.789
1688815455.113,-28.320,-42.480,0.977,70.801,-111.328
1688815455.117,-20.020,-41.992,-2.930,58.594,-151.855
1688815455.121,2.930,-42.969,-4.883,64.941,-142.578
1688815455.125,6.836,-43.457,-4.395,71.777,-24.414
1688815455.129,-7.324,-38.574,-0.977,65.430,-28.809
1688815455.133,-29.785,-38.574,1.465,58.105,-61.523
1688815455.136,-13.672,-39.062,2.441,55.176,51.270
1688815455.140,15.625,-38.574,-4.395,66.406,153.809
1688815455.144,11.719,-34.180,-8.301,82.031,-36.621
1688815455.148,-15.137,-31.250,-9.766,80.078,-133.301
1688815455.152,-33.691,-27.344,-11.719,70.801,-4.395
1688815455.168,-28.320,-26.367,-10.742,60.547,-48.828
1688815455.172,-9.277,-29.297,-13.672,52.246,-195.312
1688815455.176,0.488,-26.367,-10.254,62.500,-62.988
1688815455.180,-10.254,-27.344,-7.812,74.707,-4.395
1688815455.184,-27.344,-30.762,-3.906,70.801,-84.961
1688815455.188,-35.645,-30.762,-5.371,42.969,-97.168
1688815455.192,-25.879,-33.203,-11.230,36.621,-86.426
1688815455.195,-15.137,-31.738,-9.277,68.848,156.738
1688815455.199,-19.043,-26.855,-11.719,75.195,214.355
1688815455.203,-33.691,-28.809,-16.113,54.688,-57.617
1688815455.207,-38.574,-32.715,-20.508,39.062,-111.816
1688815455.211,-19.043,-34.668,-20.996,28.809,4.883
1688815455.200,-3.418,-32.227,-17.578,21.484,-30.273
1688815455.204,0.977,-22.461,-11.719,26.855,-150.879
1688815455.208,-22.461,-20.508,-13.184,23.926,-26.855
1688815455.212,-35.156,-25.879,-12.207,5.371,-50.293
1688815455.216,-7.812,-21.973,-6.836,5.371,-203.125
1688815455.220,-3.906,-26.367,-11.719,-2.930,-104.980
1688815455.224,-10.742,-31.738,-15.137,-20.020,107.422
1688815455.227,-22.949,-27.344,-16.602,-22.461,159.668
1688815455.231,-40.527,-27.832,-14.648,-32.227,-22.949
1688815455.235,-26.855,-32.227,-13.672,-43.945,-175.781
1688815455.239,-13.184,-35.645,-17.578,-23.926,-37.598
1688815455.243,-10.742,-36.133,-19.043,-1.953,124.512
1688815455.289,-19.531,-32.227,-19.531,-10.742,-57.129
1688815455.293,-39.062,-29.297,-14.648,-12.695,-155.762
1688815455.297,-18.066,-26.367,-13.672,-12.695,-188.965
1688815455.301,6.836,-25.879,-19.531,-3.906,-150.391
1688815455.305,-5.371,-26.367,-16.113,7.812,-68.359
1688815455.309,-29.785,-26.855,-19.531,-11.230,-62.988
1688815455.313,-45.410,-24.414,-20.996,-7.812,218.750
1688815455.316,-30.762,-20.020,-19.043,9.766,275.391
1688815455.320,-14.160,-20.020,-21.973,-3.906,-109.375
1688815455.324,-12.695,-16.602,-22.949,-3.906,-227.539
1688815455.328,-22.461,-13.184,-22.461,4.395,-72.266
1688815455.332,-38.574,-15.137,-20.508,-1.953,-62.988
1688815455.306,-28.809,-17.578,-20.508,-26.367,-190.430
1688815455.310,-7.812,-19.531,-19.531,-17.090,-136.719
1688815455.314,-8.301,-22.949,-20.996,-5.371,-78.613
1688815455.318,-24.902,-27.832,-25.391,-3.906,-81.055
1688815455.322,-35.645,-31.250,-20.996,-7.324,-147.949
1688815455.326,-30.762,-32.227,-20.508,-25.879,-69.824
1688815455.330,-19.043,-29.785,-21.973,-19.043,27.832
1688815455.333,-11.719,-25.879,-15.137,-2.930,-0.977
1688815455.337,-24.902,-22.461,-13.672,3.906,-39.062
1688815455.341,-49.805,-25.879,-15.137,4.395,-17.090
1688815455.345,-50.293,-34.668,-18.555,5.859,1.953
1688815455.349,-26.367,-33.203,-20.020,4.883,-63.965
1688815455.348,-13.672,-27.832,-15.137,13.672,-97.168
1688815455.352,-21.484,-21.484,-12.207,28.809,-46.875
1688815455.356,-38.086,-18.555,-15.137,28.809,-15.625
1688815455.360,-34.180,-23.926,-17.090,-1.953,-74.219
1688815455.364,-8.789,-20.996,-13.672,-15.625,-131.836
1688815455.368,0.977,-15.137,-8.301,21.484,98.633
1688815455.372,-20.996,-19.043,-12.695,42.969,435.059
1688815455.375,-33.691,-22.461,-13.184,44.922,166.016
1688815455.379,-47.363,-22.461,-11.719,27.344,-145.020
1688815455.383,-31.250,-22.949,-14.160,5.371,170.410
1688815455.387,-14.160,-20.996,-18.555,-9.766,424.805
1688815455.391,-38.086,-21.484,-24.414,-19.531,23.438
1688815455.393,-56.641,-23.438,-21.973,-24.414,-205.566
1688815455.397,-48.828,-23.926,-15.137,-35.156,-134.766
1688815455.401,-29.297,-20.996,-11.230,-36.133,-164.551
1688815455.405,-23.926,-20.020,-10.742,-17.578,-184.082
1688815455.409,-27.832,-21.484,-9.766,0.488,-137.695
1688815455.413,-44.434,-28.320,-10.254,4.395,-91.309
1688815455.417,-55.176,-25.879,-10.742,-9.277,-105.469
1688815455.420,-33.691,-26.367,-14.160,-34.180,-186.035
1688815455.424,-16.113,-31.738,-17.090,-22.949,-74.219
1688815455.428,-29.785,-29.297,-18.555,-14.648,112.305
1688815455.432,-51.758,-28.320,-18.555,-15.137,-77.148
1688815455.436,-61.035,-30.273,-16.602,0.977,-154.297
1688815455.440,-45.898,-30.762,-17.090,-22.461,1.465
1688815455.444,-12.207,-25.879,-20.508,-34.180,7.324
1688815455.448,2.441,-21.484,-20.020,-27.832,-131.348
1688815455.452,-13.184,-24.902,-21.973,-23.438,-187.012
1688815455.456,-29.785,-27.344,-18.066,-4.883,-73.242
1688815455.460,-16.602,-29.297,-11.230,-13.184,-0.977
1688815455.464,22.949,-27.344,-14.160,-20.508,-65.430
1688815455.467,29.297,-25.391,-14.648,-21.973,-209.473
1688815455.471,-13.672,-33.203,-11.719,-8.789,52.734
1688815455.475,-32.715,-41.016,-10.742,23.438,344.238
1688815455.479,5.371,-38.574,-11.230,19.531,-38.086
1688815455.483,38.574,-26.855,-19.531,11.230,-173.828
1688815455.514,32.227,-25.391,-26.367,3.418,-63.965
1688815455.518,10.254,-28.320,-35.645,-17.090,-95.703
1688815455.522,-12.207,-26.855,-40.527,-12.695,-128.906
1688815455.526,-14.160,-20.996,-45.898,-43.945,-107.422
1688815455.530,13.184,-15.137,-56.152,-72.266,-2.930
1688815455.534,21.484,-15.625,-55.176,-69.824,-17.090
1688815455.538,-3.418,-12.207,-65.430,-88.379,-7.812
1688815455.541,-39.551,-8.301,-74.707,-72.266,147.949
1688815455.545,-50.293,1.953,-77.637,-85.938,214.844
1688815455.549,-24.902,8.789,-89.844,-123.047,-67.871
1688815455.553,-11.719,12.695,-90.332,-111.816,-187.500
1688815455.557,-30.762,19.043,-95.703,-131.348,-103.516
1688815455.529,-54.199,21.973,-101.074,-136.719,-8.789
1688815455.533,-72.754,22.949,-103.516,-145.508,-41.504
1688815455.537,-57.129,30.762,-107.422,-169.922,-141.113
1688815455.541,-41.504,34.668,-111.328,-156.250,-47.852
1688815455.545,-51.758,37.109,-114.746,-163.086,15.625
1688815455.549,-68.359,40.039,-113.281,-143.555,40.039
1688815455.553,-70.801,41.504,-115.723,-144.043,32.715
1688815455.556,-31.738,50.781,-118.164,-174.805,-11.230
1688815455.560,-5.371,52.246,-116.699,-157.715,-30.762
1688815455.564,-3.418,47.363,-120.117,-141.602,-38.086
1688815455.568,-21.973,51.758,-122.559,-114.258,-18.066
1688815455.572,-32.227,53.711,-121.582,-111.816,17.090
1688815455.574,5.371,51.758,-120.605,-144.531,-61.035
1688815455.578,27.344,46.875,-117.188,-121.094,-162.109
1688815455.582,20.020,45.898,-111.328,-89.355,-136.230
1688815455.586,-11.230,36.133,-103.516,-68.848,159.668
1688815455.590,-28.320,26.367,-96.191,-70.801,255.859
1688815455.594,4.395,27.344,-89.844,-91.797,-82.031
1688815455.598,18.066,25.879,-86.426,-76.172,60.059
1688815455.601,12.207,22.461,-83.496,-54.688,276.367
1688815455.605,5.371,21.973,-84.961,-52.734,-37.598
1688815455.609,-22.949,22.461,-83.984,-54.688,-200.684
1688815455.613,-18.555,16.113,-77.148,-63.477,-3.906
1688815455.617,4.883,9.766,-69.336,-58.594,102.051
1688815455.619,7.324,10.254,-67.383,-51.270,-126.465
1688815455.623,-13.184,9.766,-66.406,-38.086,-172.363
1688815455.627,-48.828,6.348,-58.594,-26.367,-52.246
1688815455.631,-36.621,1.465,-55.664,-45.410,-109.863
1688815455.635,-14.160,-2.441,-56.641,-44.434,-200.684
1688815455.639,-23.438,-2.441,-59.082,-19.043,-192.383
1688815455.643,-34.180,-3.906,-60.059,-5.371,123.535
1688815455.646,-55.176,-4.395,-54.688,-0.488,222.168
1688815455.650,-41.504,-2.930,-50.781,-19.043,-71.289
1688815455.654,-2.930,-6.836,-47.852,-32.715,-37.598
1688815455.658,-0.488,-13.184,-42.480,-8.789,177.734
1688815455.662,-26.855,-15.137,-45.898,-7.324,139.160
1688815455.679,-59.570,-9.766,-42.969,-11.719,-84.473
1688815455.683,-45.410,-10.742,-36.133,-25.879,-166.992
1688815455.687,-4.883,-12.695,-35.645,-42.480,-195.312
1688815455.691,-3.906,-13.184,-36.621,-47.852,-183.105
1688815455.695,-29.297,-16.602,-35.645,-51.758,-126.465
1688815455.699,-63.477,-22.949,-37.109,-17.578,138.184
1688815455.703,-61.035,-25.391,-34.180,-29.297,278.809
1688815455.706,-20.508,-20.508,-31.250,-60.059,-20.996
1688815455.710,-5.859,-17.090,-35.156,-37.598,-248.535
1688815455.714,-11.719,-21.484,-39.062,-22.461,-50.781
1688815455.718,-23.926,-19.531,-34.180,-0.977,143.555
1688815455.722,-22.949,-21.484,-34.668,0.000,-83.496
1688815455.723,20.508,-23.438,-35.645,-24.414,-282.715
1688815455.727,42.969,-16.113,-33.203,-6.836,-131.836
1688815455.731,36.133,-16.602,-25.879,9.277,-23.438
1688815455.735,15.625,-19.043,-27.832,14.648,-106.445
1688815455.739,8.789,-21.484,-32.227,0.488,-88.379
1688815455.743,35.645,-20.508,-31.250,-35.156,-11.230
1688815455.747,49.805,-24.902,-34.668,-5.859,37.598
1688815455.750,53.223,-25.879,-29.785,21.973,-118.164
1688815455.754,23.926,-16.113,-27.832,3.418,-124.023
1688815455.758,-20.508,-15.137,-36.621,-16.113,206.543
1688815455.762,6.348,-18.066,-36.133,-29.297,176.270
1688815455.766,35.156,-18.066,-36.133,-24.414,-202.148
1688815455.769,24.414,-19.043,-36.621,-12.695,-130.371
1688815455.773,-4.883,-19.531,-38.574,1.953,170.410
1688815455.777,-24.902,-18.555,-38.574,-13.184,37.109
1688815455.781,-0.488,-15.137,-33.691,-44.922,-168.945
1688815455.785,20.508,-13.184,-37.109,-30.273,-132.324
1688815455.789,19.531,-12.207,-35.645,-9.766,-81.055
1688815455.793,-1.953,-12.207,-31.250,-1.953,-43.457
1688815455.796,-22.461,-12.695,-29.297,-1.465,-90.332
1688815455.800,-0.488,-13.672,-34.668,-24.414,-60.547
1688815455.804,30.762,-15.625,-37.109,-26.367,77.148
1688815455.808,37.598,-19.043,-34.180,-9.766,-83.008
1688815455.812,18.555,-20.508,-35.156,-1.465,-97.656
1688815455.829,-3.418,-17.090,-34.668,-3.418,47.852
1688815455.833,14.160,-18.555,-35.156,-27.832,-51.270
1688815455.837,37.109,-22.461,-38.086,-38.574,-191.895
1688815455.841,38.574,-20.996,-35.645,-22.949,-122.559
1688815455.845,14.648,-23.438,-34.180,-13.184,98.633
1688815455.849,-18.555,-27.832,-35.645,0.000,115.723
1688815455.853,-10.254,-25.391,-36.133,-24.414,-38.574
1688815455.856,20.508,-21.973,-34.180,-41.016,-221.191
1688815455.860,17.578,-24.902,-32.227,-11.719,55.176
1688815455.864,1.465,-22.949,-32.227,9.766,345.215
1688815455.868,-22.949,-16.602,-34.180,12.207,-17.090
1688815455.872,-14.160,-19.043,-34.180,-16.602,-147.949
1688815455.859,12.695,-17.578,-36.133,-28.809,-131.348
1688815455.863,10.742,-17.090,-37.109,-21.973,-240.723
1688815455.867,-8.301,-19.043,-34.668,-15.137,-255.371
1688815455.871,-38.086,-17.090,-35.645,4.883,-118.164
1688815455.875,-36.621,-19.043,-36.133,-20.020,-63.965
1688815455.879,-2.441,-20.996,-35.156,-53.223,-119.141
1688815455.883,13.184,-19.043,-36.621,-41.504,-53.711
1688815455.886,5.371,-16.602,-36.621,-18.066,100.098
1688815455.890,-20.508,-17.090,-32.715,3.906,112.305
1688815455.894,-27.832,-19.531,-33.203,-13.672,-92.773
1688815455.898,-3.906,-18.066,-35.156,-40.039,-208.984
1688815455.902,8.789,-17.578,-31.738,-23.926,14.160
1688815455.904,-5.859,-20.020,-28.320,-6.836,261.719
1688815455.908,-47.852,-22.461,-32.715,7.324,112.793
1688815455.912,-64.453,-21.973,-36.621,-1.953,-98.145
1688815455.916,-31.250,-22.949,-33.203,-33.691,-188.477
1688815455.920,-6.836,-24.902,-31.738,-18.066,-140.625
1688815455.924,-20.996,-25.391,-35.156,-4.883,-46.875
1688815455.928,-47.363,-21.484,-33.203,-9.277,-75.195
1688815455.931,-66.895,-18.066,-29.785,-13.184,77.637
1688815455.935,-51.758,-20.508,-34.668,-42.480,189.453
1688815455.939,-27.832,-22.949,-36.133,-33.203,-24.414
1688815455.943,-30.273,-24.902,-35.645,-32.715,-127.441
1688815455.947,-57.129,-21.484,-34.180,-18.555,91.309
1688815455.948,-82.031,-23.438,-32.227,-3.418,110.840
1688815455.952,-48.340,-26.855,-33.691,-36.621,-194.824
1688815455.956,-18.066,-28.809,-33.691,-25.391,-167.480
1688815455.960,-27.832,-31.738,-35.156,-19.531,-103.516
1688815455.964,-41.992,-29.785,-37.598,-28.809,-148.438
1688815455.968,-64.453,-33.203,-34.180,-30.273,-131.836
1688815455.972,-61.523,-34.180,-30.273,-49.316,21.484
1688815455.975,-33.203,-34.180,-31.250,-44.434,149.414
1688815455.979,-31.738,-35.156,-37.598,-37.109,-88.379
1688815455.983,-47.852,-31.738,-38.574,-30.762,-248.535
1688815455.987,-69.336,-30.762,-34.668,-8.789,-19.531
1688815455.991,-56.152,-27.344,-32.227,-21.484,5.859
1688815455.994,-10.742,-28.320,-28.809,-42.969,-184.570
1688815455.998,-14.160,-37.109,-33.691,-38.086,-145.508
1688815456.002,-36.133,-33.691,-36.621,-25.879,-74.707
1688815456.006,-64.453,-32.715,-33.691,-10.254,-50.781
1688815456.010,-65.918,-33.691,-36.621,-32.715,-108.887
1688815456.014,-27.832,-36.133,-35.645,-48.340,-110.840
1688815456.018,-25.391,-34.180,-36.133,-25.391,187.012
1688815456.021,-33.203,-25.879,-36.621,-18.066,219.727
1688815456.025,-43.945,-26.855,-32.715,-7.812,12.695
1688815456.029,-50.293,-27.832,-33.203,-27.832,-6.348
1688815456.033,-14.648,-28.320,-31.250,-45.410,37.598
1688815456.037,7.812,-27.344,-30.762,-29.785,-74.219
1688815456.054,-7.324,-26.367,-26.855,-33.203,-153.320
1688815456.058,-33.203,-30.273,-22.461,-23.926,62.988
1688815456.062,-48.828,-33.203,-24.414,-33.691,68.359
1688815456.066,-27.344,-35.156,-31.250,-68.359,-152.344
1688815456.070,-10.254,-31.738,-32.715,-46.387,-165.039
1688815456.074,-20.020,-28.320,-25.879,-15.137,77.637
1688815456.078,-45.410,-28.320,-30.273,-8.789,146.484
1688815456.081,-49.316,-28.809,-30.273,-39.062,-88.867
1688815456.085,-24.414,-29.297,-24.902,-75.195,-198.242
1688815456.089,-10.742,-32.227,-26.855,-71.289,-23.438
1688815456.093,-16.602,-32.715,-28.320,-62.500,126.953
1688815456.097,-42.969,-33.691,-26.855,-58.105,-47.852
1688815456.114,-59.082,-34.668,-28.809,-76.660,-78.613
1688815456.118,-35.645,-32.227,-24.902,-104.004,-53.711
1688815456.122,-17.578,-33.691,-26.855,-97.656,-27.344
1688815456.126,-21.484,-35.156,-32.715,-95.703,-8.789
1688815456.130,-40.527,-31.250,-31.250,-89.844,-65.918
1688815456.134,-61.523,-29.297,-32.227,-89.844,126.953
1688815456.138,-39.062,-31.250,-34.668,-114.258,90.820
1688815456.141,-4.883,-32.715,-29.785,-100.098,-143.066
1688815456.145,-1.465,-35.645,-25.879,-78.125,-94.727
1688815456.149,-29.297,-34.180,-31.738,-77.148,129.883
1688815456.153,-58.105,-32.715,-34.180,-69.824,274.414
1688815456.157,-38.086,-34.180,-28.809,-87.402,-35.156
1688815456.143,-10.742,-33.691,-28.809,-83.984,-201.172
1688815456.147,-13.672,-33.691,-30.762,-76.172,-93.750
1688815456.151,-40.527,-33.203,-31.250,-62.988,-44.434
1688815456.155,-58.594,-28.320,-33.203,-50.781,-57.617
1688815456.159,-30.273,-28.320,-35.156,-65.918,-99.121
1688815456.163,1.465,-32.715,-32.715,-50.781,-2.441
1688815456.167,-11.230,-35.156,-29.297,-40.527,36.133
1688815456.170,-39.062,-38.086,-27.832,-60.059,-61.035
1688815456.174,-68.848,-30.762,-28.320,-68.359,30.762
1688815456.178,-57.129,-34.180,-30.273,-79.590,9.766
1688815456.182,-12.207,-41.504,-29.297,-79.590,-199.219
1688815456.186,-12.695,-34.180,-29.785,-70.312,-226.562
1688815456.189,-38.086,-32.227,-24.414,-54.199,23.926
1688815456.193,-57.129,-30.273,-21.973,-25.391,360.840
1688815456.197,-42.969,-30.762,-25.391,-48.340,32.715
1688815456.201,-11.230,-31.738,-24.902,-75.684,-199.707
1688815456.205,-3.906,-33.203,-27.832,-71.289,-78.613
1688815456.209,-20.020,-36.133,-26.367,-77.148,32.715
1688815456.213,-38.086,-31.250,-23.926,-72.754,64.453
1688815456.216,-27.344,-24.902,-25.391,-81.543,-28.809
1688815456.220,-1.953,-25.391,-26.855,-92.285,192.871
1688815456.224,7.812,-24.902,-25.879,-69.824,314.453
1688815456.228,-7.324,-23.926,-24.414,-60.547,-42.969
1688815456.232,-34.180,-24.414,-21.484,-54.688,-156.250
1688815456.234,-40.527,-22.461,-23.926,-75.684,119.141
1688815456.238,-12.695,-25.879,-28.809,-96.680,29.785
1688815456.242,-4.883,-28.809,-29.785,-78.125,-214.355
1688815456.246,-17.090,-30.762,-26.855,-67.383,-160.156
1688815456.250,-32.715,-30.762,-26.855,-60.059,-80.078
1688815456.254,-38.086,-30.762,-28.809,-62.012,-108.887
1688815456.258,-7.812,-33.203,-29.297,-76.172,-191.406
1688815456.261,12.695,-31.250,-26.855,-64.941,-8.789
1688815456.265,5.371,-29.785,-26.367,-50.293,117.188
1688815456.269,-20.996,-26.855,-29.297,-50.293,-8.789
1688815456.273,-34.180,-24.902,-27.344,-72.754,-132.324
1688815456.277,-4.395,-29.297,-27.832,-82.031,-42.969
1688815456.279,4.395,-32.715,-33.203,-65.918,116.699
1688815456.283,-12.207,-32.715,-35.645,-73.730,-91.309
1688815456.287,-42.480,-33.691,-32.227,-55.664,-137.207
1688815456.291,-77.637,-31.250,-24.902,-54.688,-62.988
1688815456.295,-46.875,-27.344,-17.090,-90.332,-157.227
1688815456.299,-19.531,-28.320,-19.531,-81.055,-118.164
1688815456.303,-21.973,-28.320,-29.297,-70.801,-14.648
1688815456.306,-39.551,-27.344,-28.809,-59.570,134.277
1688815456.310,-70.312,-30.273,-30.762,-47.363,308.594
1688815456.314,-50.781,-32.715,-35.156,-73.730,-9.277
1688815456.318,-10.742,-29.785,-32.715,-69.336,-219.238
1688815456.322,-6.348,-32.227,-35.156,-64.453,9.766
1688815456.324,-29.297,-36.133,-38.086,-70.312,62.012
1688815456.328,-53.711,-33.691,-37.598,-63.965,-117.676
1688815456.332,-35.645,-34.180,-33.203,-80.566,-178.223
1688815456.336,-4.883,-38.086,-30.273,-84.961,-92.285
1688815456.340,8.301,-37.598,-34.180,-72.754,-185.547
1688815456.344,-10.254,-36.621,-37.109,-62.988,-179.199
1688815456.348,-51.758,-34.180,-41.016,-58.594,68.359
1688815456.351,-41.016,-34.180,-42.480,-67.383,150.879
1688815456.355,-0.488,-32.715,-38.086,-56.641,-95.215
1688815456.359,8.789,-24.414,-35.645,-41.016,-228.516
1688815456.363,-8.301,-28.809,-39.062,-39.062,-85.449
1688815456.367,-41.016,-32.227,-39.062,-31.250,28.320
1688815456.383,-40.527,-32.227,-39.062,-42.480,-119.629
1688815456.387,-3.906,-32.715,-32.715,-39.551,-244.629
1688815456.391,-0.977,-33.203,-31.738,-18.555,-14.648
1688815456.395,-26.367,-36.133,-33.203,-10.742,43.945
1688815456.399,-59.082,-42.969,-30.273,-4.883,-86.426
1688815456.403,-52.246,-40.039,-36.621,-36.133,-164.062
1688815456.407,-23.926,-29.785,-34.668,-47.852,52.246
1688815456.410,-32.227,-31.738,-32.227,-25.879,213.379
1688815456.414,-42.480,-33.203,-37.109,-29.297,-71.289
1688815456.418,-69.824,-24.902,-33.691,-28.320,-71.777
1688815456.422,-84.473,-26.367,-28.320,-41.016,83.984
1688815456.426,-54.199,-34.668,-30.273,-57.617,0.000
1688815456.414,-37.109,-31.250,-33.203,-45.898,-188.965
1688815456.418,-46.875,-30.273,-35.645,-33.203,-135.254
1688815456.422,-75.684,-30.762,-31.738,-22.461,15.137
1688815456.426,-91.797,-28.809,-28.809,-17.578,-38.574
1688815456.430,-64.941,-31.738,-32.227,-27.344,-158.691
1688815456.434,-49.316,-23.926,-33.203,-17.578,-0.977
1688815456.438,-62.500,-13.184,-31.738,2.930,213.379
1688815456.441,-95.215,-20.508,-34.180,13.184,109.375
1688815456.445,-112.793,-29.297,-37.109,-3.418,-70.312
1688815456.449,-79.590,-27.344,-33.203,-19.531,-2.441
1688815456.453,-58.594,-25.879,-29.785,-1.465,163.574
1688815456.457,-73.242,-24.902,-30.273,-1.953,12.695
1688815456.475,-96.191,-26.367,-31.250,0.977,-82.520
1688815456.479,-108.887,-28.809,-34.668,4.883,-65.430
1688815456.483,-85.449,-31.250,-41.016,-21.484,-119.629
1688815456.487,-52.734,-28.809,-38.086,-18.066,-157.715
1688815456.491,-61.523,-27.344,-38.574,-6.836,-171.875
1688815456.495,-92.773,-32.227,-40.527,-14.160,-79.590
1688815456.499,-114.258,-34.668,-39.062,-16.602,-5.859
1688815456.502,-95.703,-34.668,-42.969,-31.250,-104.980
1688815456.506,-58.105,-30.273,-41.016,-14.648,-35.645
1688815456.510,-57.617,-28.809,-37.598,2.930,68.848
1688815456.514,-84.961,-28.809,-33.203,2.930,-47.852
1688815456.518,-106.934,-26.855,-30.273,14.160,-61.035
1688815456.518,-92.773,-25.391,-29.297,-10.742,-101.562
1688815456.522,-65.430,-29.297,-27.832,-12.207,83.008
1688815456.526,-67.871,-31.250,-32.227,2.930,111.816
1688815456.530,-83.984,-29.297,-35.645,-2.441,-201.660
1688815456.534,-104.004,-30.762,-35.156,2.441,-73.730
1688815456.538,-83.984,-29.297,-34.180,-14.648,100.098
1688815456.542,-42.969,-27.832,-35.156,-22.461,35.645
1688815456.545,-38.086,-28.320,-36.133,-15.137,-83.984
1688815456.549,-58.105,-32.715,-38.574,-9.277,-74.707
1688815456.553,-83.496,-36.133,-38.574,17.578,384.766
1688815456.557,-66.406,-35.645,-37.598,-0.488,323.242
1688815456.561,-21.484,-36.621,-35.645,-16.602,-190.430
1688815456.564,1.465,-27.344,-29.785,8.301,-179.199
1688815456.568,-2.441,-26.855,-28.809,12.207,-124.512
1688815456.572,-34.180,-37.598,-31.738,13.184,-119.629
1688815456.576,-41.016,-35.156,-37.109,-10.742,-135.254
1688815456.580,-7.812,-30.762,-37.598,-28.809,-146.973
1688815456.584,8.301,-30.273,-26.855,-19.531,-95.215
1688815456.588,-14.160,-33.203,-26.855,-17.578,-36.133
1688815456.591,-44.922,-32.715,-29.785,-9.277,-51.270
1688815456.595,-50.293,-30.273,-30.273,-13.672,127.441
1688815456.599,-16.602,-33.691,-32.715,-30.273,239.258
1688815456.603,1.465,-33.691,-28.809,-23.926,-108.887
1688815456.607,-3.906,-29.297,-24.902,-28.320,-145.020
1688815456.609,-22.461,-32.715,-29.297,-26.855,27.344
1688815456.613,-32.715,-34.180,-32.715,-23.926,-92.285
1688815456.617,-4.883,-32.227,-30.273,-35.645,-228.516
1688815456.621,14.648,-31.738,-31.738,-27.344,-145.020
1688815456.625,9.766,-29.785,-34.668,-29.785,-124.512
1688815456.629,-12.695,-27.344,-30.762,-20.020,-89.844
1688815456.633,-24.902,-29.785,-33.691,-18.066,-50.781
1688815456.636,1.953,-31.250,-34.180,-34.180,-61.035
1688815456.640,23.438,-29.297,-27.344,-10.254,112.305
1688815456.644,15.625,-32.227,-28.809,-2.441,-54.199
1688815456.648,-14.160,-36.621,-35.645,-8.789,-187.500
1688815456.652,-32.715,-35.645,-37.598,4.883,-61.035
1688815456.655,-13.672,-32.227,-39.062,-13.672,-167.480
1688815456.659,8.301,-37.109,-41.992,-32.715,-224.609
1688815456.663,11.230,-41.504,-41.016,-26.367,-88.867
1688815456.667,-3.418,-35.156,-38.574,-5.371,-32.715
1688815456.671,-22.461,-29.297,-37.109,-5.371,-47.852
1688815456.675,-4.883,-30.273,-34.180,-34.180,-74.219
1688815456.679,23.438,-31.738,-36.621,-21.484,-30.273
1688815456.682,27.832,-29.297,-41.504,-19.043,186.035
1688815456.686,-0.488,-32.715,-41.016,-30.273,193.848
1688815456.690,-32.715,-33.203,-38.086,-17.090,-115.723
1688815456.694,-20.996,-31.738,-37.598,-46.387,-161.133
1688815456.698,10.742,-31.250,-36.133,-55.176,-40.527
1688815456.699,20.996,-32.715,-34.668,-35.156,-73.242
1688815456.703,1.953,-34.180,-33.691,-25.879,-162.598
1688815456.707,-17.090,-32.227,-35.156,-11.230,-85.449
1688815456.711,-4.883,-30.273,-38.086,-30.762,-98.145
1688815456.715,24.902,-28.320,-34.668,-34.668,-119.629
1688815456.719,28.809,-29.297,-32.227,-14.648,-76.172
1688815456.723,4.395,-28.809,-29.785,-3.906,5.859
1688815456.726,-26.855,-26.855,-28.320,14.160,326.660
1688815456.730,-29.785,-34.180,-29.785,-0.977,152.344
1688815456.734,1.465,-38.574,-31.250,-20.020,-220.215
1688815456.738,9.277,-33.203,-30.762,-0.488,-113.770
1688815456.742,-12.207,-35.645,-31.738,11.230,-64.941
1688815456.759,-37.598,-35.645,-32.227,8.301,-56.641
1688815456.763,-45.410,-32.715,-32.715,-10.742,-83.984
1688815456.767,-17.090,-32.715,-35.645,-23.438,-178.711
1688815456.771,-10.742,-36.621,-35.645,-10.254,-161.621
1688815456.775,-25.879,-35.156,-38.086,-9.277,-134.766
1688815456.779,-53.711,-36.133,-40.527,-15.137,-33.203
1688815456.783,-61.035,-33.691,-34.668,-32.715,256.836
1688815456.786,-27.832,-26.367,-30.762,-38.086,208.496
1688815456.790,-19.531,-29.297,-30.273,-25.391,-84.961
1688815456.794,-33.203,-31.250,-30.273,-29.297,-110.352
1688815456.798,-62.988,-31.250,-29.297,-18.555,156.250
1688815456.802,-79.102,-30.762,-31.250,-15.625,224.609
1688815456.788,-44.922,-28.809,-30.762,-33.691,-122.070
1688815456.792,-18.066,-25.391,-33.691,-28.320,-130.371
1688815456.796,-15.625,-23.926,-34.180,-21.484,-134.766
1688815456.800,-41.016,-21.973,-29.785,-2.930,-185.547
1688815456.804,-56.152,-23.926,-27.832,-7.812,-160.156
1688815456.808,-35.645,-32.227,-31.250,-41.504,-45.410
1688815456.812,-10.254,-31.738,-33.203,-45.410,6.348
1688815456.815,-4.395,-29.297,-29.297,-30.762,-158.691
1688815456.819,-24.414,-27.832,-28.809,-17.578,-185.547
1688815456.823,-44.922,-28.320,-31.738,-20.996,125.000
1688815456.827,-23.926,-27.832,-30.762,-33.203,420.410
1688815456.831,3.906,-28.809,-28.320,-31.250,58.594
1688815456.849,5.371,-31.250,-26.855,-27.832,-198.242
1688815456.853,-15.137,-30.273,-27.344,-9.277,-82.520
1688815456.857,-46.875,-31.738,-31.250,-4.395,-5.859
1688815456.861,-23.926,-32.715,-33.691,-26.367,-95.215
1688815456.865,10.254,-38.086,-32.227,-27.344,-160.156
1688815456.869,3.906,-38.086,-34.180,-14.160,-79.102
1688815456.873,-17.090,-34.180,-32.715,-4.395,-19.043
1688815456.876,-49.316,-32.715,-32.715,-3.418,-30.273
1688815456.880,-40.039,-30.273,-34.180,-29.785,-3.418
1688815456.884,-13.184,-32.227,-30.762,-35.645,214.355
1688815456.888,-10.742,-30.273,-30.273,-31.738,229.004
1688815456.892,-26.855,-29.785,-31.250,-31.250,-49.316
1688815456.894,-52.734,-34.180,-32.227,-25.879,-96.680
1688815456.898,-47.363,-35.645,-37.598,-51.270,-57.129
1688815456.902,-19.043,-31.250,-35.156,-39.551,-128.906
1688815456.906,-16.113,-24.414,-33.691,-17.578,-180.664
1688815456.910,-29.785,-27.344,-33.203,-10.742,-115.723
1688815456.914,-55.176,-28.320,-33.691,-8.789,-43.945
1688815456.918,-52.246,-22.461,-34.668,-33.691,18.066
1688815456.921,-14.648,-25.391,-33.203,-37.109,-138.672
1688815456.925,-9.766,-29.297,-32.715,-13.672,-131.348
1688815456.929,-26.855,-30.762,-31.250,1.953,100.586
1688815456.933,-58.105,-31.250,-31.738,8.301,-16.113
1688815456.937,-57.129,-28.320,-31.738,-6.836,-137.207
1688815456.939,-20.996,-26.367,-31.250,-25.391,-133.301
1688815456.943,-11.230,-26.855,-33.691,-6.348,-73.242
1688815456.947,-26.367,-29.297,-31.250,-2.441,-49.805
1688815456.951,-54.688,-30.273,-29.297,-6.348,-131.836
1688815456.955,-55.664,-25.879,-28.320,-10.742,-99.121
1688815456.959,-22.949,-24.414,-26.367,-20.508,-42.480
1688815456.963,-5.371,-22.461,-26.367,-12.695,-48.828
1688815456.966,-8.301,-23.926,-29.785,-10.254,-109.375
1688815456.970,-39.551,-29.297,-34.668,-4.395,24.414
1688815456.974,-57.617,-29.297,-35.645,-24.414,8.789
1688815456.978,-28.809,-31.250,-39.062,-50.781,-238.281
1688815456.982,-7.812,-30.273,-41.016,-43.457,-237.305
1688815456.983,-22.461,-31.250,-40.527,-41.992,107.422
1688815456.987,-47.363,-31.738,-42.480,-20.508,280.273
1688815456.991,-64.453,-31.250,-39.551,-13.184,-41.992
1688815456.995,-48.828,-37.109,-36.133,-30.762,-100.586
1688815456.999,-31.738,-41.016,-37.109,-18.066,37.109
1688815457.003,-37.598,-37.109,-32.715,-9.277,32.227
1688815457.007,-65.430,-33.691,-27.832,2.930,-33.203
1688815457.010,-80.566,-30.273,-23.438,11.719,-3.906
1688815457.014,-63.965,-28.320,-23.926,-7.324,123.535
1688815457.018,-47.852,-21.484,-31.250,-11.719,-87.402
1688815457.022,-37.109,-21.484,-29.297,7.812,-218.262
1688815457.026,-72.266,-34.180,-17.090,14.648,-103.516
1688815457.029,-132.812,-37.109,-16.113,1.465,-55.176
1688815457.033,-128.906,-43.457,-20.508,-27.832,-169.922
1688815457.037,-110.840,-54.688,-21.484,-29.297,-218.750
1688815457.041,-115.723,-57.617,-18.555,-13.672,-169.434
1688815457.045,-139.648,-61.523,-11.230,-12.207,-125.488
1688815457.049,-174.805,-68.359,-9.277,-3.906,-10.254
1688815457.053,-158.691,-67.871,-2.441,-21.973,-57.617
1688815457.056,-133.301,-69.336,6.348,-29.785,166.504
1688815457.060,-131.348,-77.637,9.766,-2.441,456.543
1688815457.064,-153.320,-84.473,13.184,-10.254,78.613
1688815457.068,-185.547,-84.473,16.113,-17.578,-118.652
1688815457.072,-173.828,-82.520,18.555,-25.879,-20.996
1688815457.075,-147.461,-90.820,16.113,-42.969,-69.824
1688815457.079,-142.578,-91.797,17.578,-25.391,-122.559
1688815457.083,-154.297,-86.914,26.367,-17.578,-48.828
1688815457.087,-182.617,-91.309,28.809,-16.113,26.855
1688815457.091,-171.387,-92.773,28.809,-22.949,-108.398
1688815457.095,-132.324,-90.332,31.738,-43.945,-163.086
1688815457.099,-119.141,-86.426,28.320,-30.273,51.270
1688815457.102,-123.047,-81.543,26.367,-11.230,188.477
1688815457.106,-142.578,-86.426,33.203,-3.418,79.590
1688815457.110,-133.789,-88.379,36.621,-16.602,-61.523
1688815457.114,-91.797,-83.984,38.574,-22.461,-29.297
1688815457.118,-74.707,-80.078,42.480,11.230,38.574
1688815457.118,-79.102,-81.055,41.504,7.324,-112.305
1688815457.122,-94.238,-85.449,35.645,9.277,-169.922
1688815457.126,-105.469,-85.938,40.039,14.160,-146.973
1688815457.130,-84.473,-84.473,40.527,-6.836,-207.520
1688815457.134,-67.871,-79.102,32.227,-8.301,-188.965
1688815457.138,-75.684,-75.684,25.391,-23.438,-67.871
1688815457.142,-102.539,-76.172,20.996,-20.996,258.301
1688815457.145,-95.703,-60.059,23.438,-4.395,291.016
1688815457.149,-61.523,-60.059,25.879,-32.227,-124.023
1688815457.153,-65.918,-72.266,17.578,-39.062,-194.824
1688815457.157,-75.684,-61.035,13.672,-13.672,-23.926
1688815457.161,-93.750,-53.711,10.254,-5.859,45.410
1688815457.164,-115.723,-57.617,6.836,-7.812,-76.172
1688815457.168,-81.055,-52.246,11.719,-29.785,-48.340
1688815457.172,-47.363,-47.363,15.137,-14.648,27.344
1688815457.176,-60.547,-55.664,5.859,-9.277,-113.281
1688815457.180,-83.008,-51.270,10.254,-14.160,-156.250
1688815457.184,-103.027,-44.922,13.672,-1.953,10.254
1688815457.188,-89.844,-47.363,-0.488,-29.785,89.355
1688815457.191,-59.570,-47.852,-0.977,-24.902,-85.449
1688815457.195,-55.664,-50.781,0.488,-0.488,-194.824
1688815457.199,-74.219,-50.293,-7.324,11.719,-32.227
1688815457.203,-104.492,-51.270,-12.207,13.672,111.816
1688815457.207,-72.266,-48.828,-9.277,-25.391,-132.812
1688815457.210,-39.062,-41.504,-4.883,-31.738,-215.332
1688815457.214,-43.457,-39.551,-0.977,-12.207,1.953
1688815457.218,-53.223,-44.922,-6.836,-11.719,26.367
1688815457.222,-73.730,-43.945,-13.672,-20.508,-45.898
1688815457.226,-40.039,-38.574,-14.160,-46.875,-105.957
1688815457.230,4.883,-38.574,-17.090,-53.711,97.656
1688815457.234,17.578,-35.156,-18.555,-28.809,145.996
1688815457.237,20.996,-29.297,-19.531,-28.320,-119.629
1688815457.241,-5.859,-29.297,-18.555,-31.250,-64.941
1688815457.245,1.953,-32.715,-18.555,-51.270,190.918
1688815457.249,36.621,-37.598,-18.066,-56.641,154.297
1688815457.253,41.992,-40.039,-18.066,-35.156,-85.449
1688815457.269,20.508,-35.156,-23.926,-34.180,-61.035
1688815457.273,-20.020,-38.086,-19.043,-12.207,39.062
1688815457.277,-19.531,-41.504,-11.230,-23.438,-47.363
1688815457.281,9.766,-40.039,-14.160,-52.734,-143.555
1688815457.285,19.531,-44.434,-18.066,-29.785,-11.719
1688815457.289,16.602,-47.363,-20.020,-26.367,103.516
1688815457.293,-7.324,-43.945,-20.996,-27.344,22.461
1688815457.296,-20.020,-41.992,-20.996,-27.832,-108.398
1688815457.300,9.766,-43.457,-17.578,-34.668,-56.641
1688815457.304,29.297,-42.480,-19.531,-22.461,45.410
1688815457.308,27.832,-32.715,-12.695,-12.695,-116.211
1688815457.312,7.812,-32.227,-14.160,-5.371,-166.016
1688815457.314,-2.930,-37.598,-24.902,-12.207,-145.508
1688815457.318,26.855,-40.527,-24.902,-41.504,-158.203
1688815457.322,41.504,-41.016,-22.949,-54.688,-160.645
1688815457.326,43.457,-33.203,-21.484,-46.387,-189.941
1688815457.330,34.180,-29.297,-24.414,-29.297,-95.703
1688815457.334,27.344,-28.809,-21.484,-32.715,39.551
1688815457.338,53.711,-33.203,-18.066,-48.340,-76.172
1688815457.341,65.430,-34.180,-20.508,-41.504,-110.840
1688815457.345,66.895,-28.320,-23.438,-33.203,196.289
1688815457.349,46.387,-22.949,-17.578,-19.531,201.172
1688815457.353,25.879,-22.461,-19.043,0.977,-80.078
1688815457.357,54.199,-23.438,-23.926,-14.160,-192.871
1688815457.359,62.012,-24.902,-12.695,-1.953,77.637
1688815457.363,44.434,-26.367,-9.766,12.207,215.820
1688815457.367,16.113,-28.320,-12.695,-4.395,-83.984
1688815457.371,-3.418,-37.109,-9.766,3.906,-52.246
1688815457.375,18.555,-38.574,-4.395,-1.953,-56.152
1688815457.379,46.387,-34.668,-3.906,-6.836,-46.875
1688815457.383,43.945,-36.621,-1.465,-3.418,-66.406
1688815457.386,12.695,-37.598,-0.977,-2.930,-45.898
1688815457.390,-7.324,-37.598,-6.348,-10.742,314.453
1688815457.394,18.555,-37.598,-9.277,-46.875,123.535
1688815457.398,40.527,-37.598,-16.113,-70.801,-193.359
1688815457.402,33.691,-37.109,-17.090,-56.641,-35.645
1688815457.404,15.625,-31.250,-8.789,-36.133,-43.457
1688815457.408,-6.836,-28.320,-7.812,-29.785,-138.672
1688815457.412,-1.465,-30.273,-13.672,-52.246,-147.461
1688815457.416,38.086,-31.250,-13.672,-50.781,-168.945
1688815457.420,45.410,-26.367,-11.230,-32.227,-145.020
1688815457.424,19.043,-23.926,-12.207,-26.855,-86.914
1688815457.428,-1.953,-34.668,-12.207,-7.812,3.418
1688815457.431,10.254,-37.109,-16.113,-9.766,215.820
1688815457.435,24.902,-34.180,-20.020,-21.973,220.703
1688815457.439,19.531,-34.668,-18.066,-19.043,-20.020
1688815457.443,6.836,-34.668,-16.602,-18.066,-95.215
1688815457.447,-20.996,-34.180,-13.672,5.859,131.836
1688815457.450,-20.020,-30.273,-9.766,-6.348,121.582
1688815457.454,7.812,-32.227,-16.113,-34.668,-188.477
1688815457.458,16.113,-33.203,-20.020,-11.719,-210.938
1688815457.462,4.883,-33.203,-14.160,-8.789,-130.859
1688815457.466,-18.066,-29.785,-16.113,-3.906,-51.270
1688815457.470,-19.531,-24.902,-20.996,-20.508,-85.938
1688815457.474,10.254,-29.297,-24.414,-47.852,4.883
1688815457.477,27.344,-28.809,-25.391,-19.531,189.941
1688815457.481,14.648,-26.855,-20.996,-3.906,-19.043
1688815457.485,-9.766,-32.715,-20.020,-6.348,-145.996
1688815457.489,-13.672,-30.762,-16.602,-2.441,-36.621
1688815457.493,17.578,-25.391,-19.043,-30.762,-93.750
1688815457.495,45.898,-28.809,-22.949,-27.832,-152.344
1688815457.499,51.270,-28.809,-19.531,-8.789,-166.504
1688815457.503,26.855,-27.344,-19.531,0.488,-48.340
1688815457.507,13.184,-29.297,-19.531,-1.953,15.137
1688815457.511,37.598,-29.297,-15.137,-14.160,-127.441
1688815457.515,55.664,-24.414,-15.625,2.441,-78.613
1688815457.519,48.828,-26.367,-14.648,20.020,123.047
1688815457.522,23.438,-34.668,-19.043,29.297,242.188
1688815457.526,-1.953,-33.203,-21.484,23.926,27.344
1688815457.530,5.859,-31.738,-24.902,-3.418,-183.105
1688815457.534,28.320,-34.180,-26.367,1.465,-16.113
1688815457.538,25.879,-31.738,-20.996,17.090,3.418
1688815457.538,-5.859,-32.227,-21.973,4.883,-128.418
1688815457.542,-29.297,-31.738,-24.902,-1.465,-42.969
1688815457.546,-8.301,-27.344,-29.297,-26.367,-117.188
1688815457.550,12.207,-21.973,-32.715,-25.391,-125.000
1688815457.554,12.695,-24.414,-35.156,-10.254,-107.422
1688815457.558,-4.883,-31.250,-34.668,-6.348,21.484
1688815457.562,-27.344,-29.785,-31.738,8.301,374.023
1688815457.565,-9.277,-26.367,-30.762,-26.367,170.410
1688815457.569,22.949,-23.926,-30.273,-41.016,-234.375
1688815457.573,26.367,-23.438,-29.297,-20.996,-86.426
1688815457.577,7.812,-22.461,-25.879,-8.301,24.902
1688815457.581,-19.043,-26.367,-24.414,-1.465,-144.043
1688815457.599,-3.418,-30.273,-30.762,-28.320,-186.035
1688815457.603,34.180,-21.484,-29.297,-28.320,-163.574
1688815457.607,32.715,-20.996,-28.320,-13.184,-166.016
1688815457.611,13.672,-26.855,-30.273,-14.648,-181.641
1688815457.615,-15.625,-29.785,-28.809,1.953,-103.027
1688815457.619,-12.695,-30.273,-32.227,-15.625,-8.301
1688815457.623,11.719,-28.809,-31.738,-32.715,7.812
1688815457.626,18.066,-27.344,-27.832,-10.254,-85.938
1688815457.630,4.395,-29.785,-34.180,-7.324,-137.695
1688815457.634,-20.508,-29.785,-35.156,-14.160,28.809
1688815457.638,-8.789,-26.367,-33.691,-22.949,-8.789
1688815457.642,20.996,-27.344,-30.762,-26.855,-102.051
1688815457.644,33.691,-28.320,-20.020,-5.859,-100.098
1688815457.648,19.531,-28.320,-21.484,0.488,185.059
1688815457.652,-11.719,-29.785,-26.367,4.395,320.312
1688815457.656,-21.484,-33.691,-26.855,-11.230,-56.152
1688815457.660,3.418,-33.691,-25.391,-34.180,-85.938
1688815457.664,19.043,-33.203,-23.926,-16.113,33.691
1688815457.668,-3.418,-28.320,-20.508,-6.348,-34.668
1688815457.671,-15.625,-37.598,-16.113,-13.672,-26.855
1688815457.675,-8.789,-41.992,-19.531,-8.301,64.453
1688815457.679,1.465,-22.949,-35.156,-15.137,161.621
1688815457.683,4.883,-16.113,-48.340,-39.062,-87.402
1688815457.687,-11.719,-14.648,-51.270,-57.617,-250.000
1688815457.689,-29.785,-15.625,-57.129,-61.523,-71.777
1688815457.693,-33.691,-10.742,-67.383,-75.684,-29.785
1688815457.697,-21.484,1.465,-74.219,-92.285,-202.148
1688815457.701,-6.836,4.395,-73.242,-82.031,-261.230
1688815457.705,-8.301,9.766,-80.566,-91.309,-237.305
1688815457.709,-38.086,8.789,-91.309,-104.004,-66.406
1688815457.713,-61.035,10.742,-96.191,-103.516,-37.598
1688815457.716,-67.383,16.602,-104.004,-125.488,-175.781
1688815457.720,-56.152,20.508,-106.445,-114.258,163.086
1688815457.724,-67.383,31.250,-104.980,-108.887,402.344
1688815457.728,-102.539,25.879,-110.840,-125.488,52.734
1688815457.732,-117.188,27.344,-114.258,-134.277,-73.730
1688815457.734,-110.840,31.738,-120.605,-144.531,-20.020
1688815457.738,-95.703,28.809,-125.000,-134.766,-137.207
1688815457.742,-98.145,33.691,-124.512,-138.184,-245.117
1688815457.746,-114.258,38.086,-125.000,-143.555,-146.973
1688815457.750,-127.441,41.992,-126.953,-139.648,33.203
1688815457.754,-108.887,38.086,-128.906,-132.812,-12.207
1688815457.758,-72.266,43.457,-127.930,-120.117,-73.730
1688815457.761,-61.035,53.711,-126.953,-122.070,32.715
1688815457.765,-71.777,54.199,-127.930,-120.117,133.789
1688815457.769,-67.871,54.199,-127.441,-130.371,1.953
1688815457.773,-48.340,50.293,-126.953,-162.598,-109.863
1688815457.777,-18.066,42.969,-121.582,-148.926,-57.129
1688815457.779,-7.324,39.062,-112.793,-112.793,21.973
1688815457.783,-17.090,34.668,-109.375,-105.469,-77.637
1688815457.787,-23.926,25.879,-104.004,-103.516,-114.258
1688815457.791,-24.902,20.020,-102.051,-112.793,32.715
1688815457.795,-0.977,15.625,-101.074,-98.145,21.973
1688815457.799,11.719,7.324,-96.191,-79.590,-20.996
1688815457.803,-4.883,7.324,-92.773,-73.730,-43.945
1688815457.806,-28.809,9.766,-89.844,-56.152,86.914
1688815457.810,-28.320,9.277,-89.844,-57.129,154.297
1688815457.814,0.488,5.859,-85.938,-56.641,-62.988
1688815457.818,2.930,4.395,-81.543,-39.062,-142.578
1688815457.822,-7.812,1.465,-78.613,-41.504,-52.734
1688815457.839,-16.113,-4.883,-77.637,-41.504,-21.973
1688815457.843,-18.066,-9.277,-76.172,-42.969,-169.434
1688815457.847,-2.441,-12.207,-71.777,-50.781,-122.559
1688815457.851,7.324,-14.160,-71.289,-47.363,-64.941
1688815457.855,0.000,-14.648,-69.824,-52.734,-126.465
1688815457.859,-13.672,-7.324,-63.965,-50.781,-43.457
1688815457.863,-12.695,-4.395,-61.035,-50.293,54.688
1688815457.866,1.465,-9.766,-65.430,-47.363,270.508
1688815457.870,14.160,-9.766,-65.430,-26.367,143.555
1688815457.874,23.926,-5.859,-58.594,-23.926,-137.207
1688815457.878,7.324,-5.859,-56.641,-28.320,-115.234
1688815457.882,-14.648,-12.695,-58.105,-28.320,-114.258
1688815457.869,-0.488,-12.695,-53.223,-26.367,-227.051
1688815457.873,11.719,-11.719,-50.781,-14.648,-203.125
1688815457.877,0.000,-10.742,-49.805,-0.488,-78.125
1688815457.881,-16.113,-11.230,-42.969,-5.371,-103.027
1688815457.885,-25.391,-14.648,-43.457,-17.090,-74.707
1688815457.889,-7.324,-16.602,-44.434,-8.789,-61.035
1688815457.893,4.395,-18.555,-43.457,13.184,115.234
1688815457.896,0.977,-18.066,-43.457,12.695,138.672
1688815457.900,-10.742,-19.531,-45.410,-6.836,0.977
1688815457.904,-23.438,-20.508,-44.922,-16.113,-81.055
1688815457.908,-8.301,-21.484,-44.922,-15.137,40.039
1688815457.912,9.277,-19.043,-45.410,-9.766,288.574
1688815457.914,12.207,-13.672,-44.434,-12.207,0.977
1688815457.918,5.371,-14.648,-43.945,-19.531,-154.785
1688815457.922,-1.953,-20.996,-44.434,-18.555,-73.242
1688815457.926,5.859,-21.484,-42.969,-14.648,-112.305
1688815457.930,17.090,-20.996,-41.992,-1.465,-199.219
1688815457.934,11.230,-24.902,-42.480,-1.465,23.926
1688815457.938,-4.395,-27.832,-44.434,-7.324,270.508
1688815457.941,-31.738,-29.297,-36.621,-13.184,93.262
